Hegyhatsal, 1961-2014 korrigalt MTCLIM OUTPUT, VPD BECSULT, GLOBRAD 1996 VEGEIG CARPATCLIM utana HEGYHATSAL amikor volt meres amugy becsult vagy 2010 vegeig CarpatClim
MTCLIM v4.3 OUTPUT FILE : Wed Jul 29 14:02:27 2015
  year  yday    Tmax    Tmin    Tday    prcp      VPD     srad  daylen
             (deg C) (deg C) (deg C)    (cm)     (Pa)  (W m-2)     (s)
2007	1	9.68	-2.10	6.44	0.12	193.75	37.30	30217
2007	2	8.84	-0.16	6.37	0.00	137.50	70.17	30272
2007	3	8.14	-0.52	5.76	0.00	342.50	104.96	30331
2007	4	6.43	-0.86	4.43	0.16	355.00	83.05	30396
2007	5	9.67	-0.44	6.89	0.00	308.75	95.59	30464
2007	6	10.55	1.83	8.15	0.00	461.25	90.86	30537
2007	7	13.14	2.19	10.13	0.00	445.00	142.72	30614
2007	8	9.17	-1.91	6.12	0.00	142.50	129.10	30695
2007	9	11.08	-0.74	7.83	0.01	245.00	119.59	30781
2007	10	13.23	2.63	10.32	0.00	377.50	146.28	30870
2007	11	15.39	4.24	12.32	0.01	502.50	172.59	30964
2007	12	12.04	3.29	9.63	0.00	651.11	185.24	31061
2007	13	15.59	0.98	11.57	0.00	745.56	157.79	31162
2007	14	14.16	-1.25	9.92	0.00	411.11	164.25	31268
2007	15	11.42	-1.26	7.93	0.00	387.78	184.71	31376
2007	16	7.73	-2.68	4.87	0.00	152.22	173.00	31489
2007	17	10.75	-2.15	7.20	0.00	298.89	170.35	31605
2007	18	11.40	0.01	8.27	0.02	356.67	97.03	31724
2007	19	11.78	6.73	10.39	1.29	77.78	40.76	31847
2007	20	8.98	3.31	7.42	0.01	83.00	67.19	31974
2007	21	11.96	0.38	8.78	0.00	117.00	167.52	32103
2007	22	8.04	3.44	6.77	0.20	84.00	35.09	32236
2007	23	3.41	1.26	2.82	1.00	17.00	11.54	32372
2007	24	4.67	-1.31	3.03	0.57	29.00	81.99	32510
2007	25	0.76	-4.62	-0.72	0.00	48.00	157.82	32652
2007	26	0.09	-6.16	-1.63	0.00	146.00	213.21	32797
2007	27	3.69	-8.27	0.40	0.22	181.00	193.92	32944
2007	28	6.31	-3.98	3.48	0.00	181.00	155.37	33094
2007	29	9.78	-0.85	6.86	0.00	468.00	118.01	33247
2007	30	10.98	-0.49	7.83	0.00	283.00	208.10	33402
2007	31	9.41	-1.19	6.50	0.00	298.00	220.66	33559
2007	32	11.38	-0.39	8.14	0.00	605.00	232.64	33719
2007	33	10.09	-0.32	7.23	0.00	386.00	217.86	33882
2007	34	9.52	1.05	7.19	0.10	449.00	207.74	34046
2007	35	8.51	0.17	6.22	0.00	406.00	235.60	34213
2007	36	12.50	-3.62	8.07	0.00	507.00	245.37	34382
2007	37	9.44	-0.07	6.82	0.73	287.00	216.04	34552
2007	38	6.44	2.65	5.40	0.00	60.00	68.64	34725
2007	39	12.69	3.69	10.22	0.04	386.00	246.68	34900
2007	40	10.60	5.07	9.08	0.07	220.00	155.80	35076
2007	41	11.99	-0.19	8.64	0.00	73.75	251.58	35254
2007	42	8.45	-0.15	6.08	0.00	146.00	157.33	35434
2007	43	12.18	1.39	9.21	1.05	290.00	182.91	35615
2007	44	11.77	5.63	10.08	0.00	295.00	111.44	35798
2007	45	13.54	1.95	10.35	0.00	589.00	286.59	35983
2007	46	8.53	3.44	7.13	0.13	170.00	100.00	36169
2007	47	6.52	2.83	5.51	0.00	188.00	52.15	36356
2007	48	7.64	0.99	5.81	0.00	249.00	183.08	36544
2007	49	6.31	-0.91	4.32	0.00	202.00	222.09	36734
2007	50	5.69	-2.06	3.56	0.00	36.00	142.21	36925
2007	51	11.93	-0.59	8.49	0.00	270.00	266.01	37117
2007	52	6.61	-1.18	4.47	0.00	14.00	92.25	37310
2007	53	10.90	3.76	8.94	0.00	106.00	161.55	37505
2007	54	11.73	3.63	9.50	0.00	303.64	177.47	37700
2007	55	8.16	2.69	6.66	0.00	167.27	157.49	37896
2007	56	5.13	-1.03	3.44	1.86	162.73	137.82	38093
2007	57	5.51	0.35	4.09	0.08	60.00	92.16	38291
2007	58	10.68	0.08	7.76	0.12	295.45	255.99	38490
2007	59	10.71	3.14	8.63	0.03	244.55	121.38	38689
2007	60	14.79	3.92	11.80	0.00	400.00	146.20	38890
2007	61	12.08	5.54	10.28	0.35	118.18	64.10	39091
2007	62	8.68	0.54	6.44	0.05	79.17	78.16	39292
2007	63	11.57	2.85	9.17	0.00	555.00	332.36	39495
2007	64	14.14	-1.57	9.82	0.00	525.83	350.84	39697
2007	65	16.47	2.74	12.69	0.11	587.50	319.14	39901
2007	66	16.56	4.70	13.30	0.16	660.83	235.80	40105
2007	67	11.71	7.08	10.44	0.95	60.83	53.16	40309
2007	68	10.03	6.34	9.02	0.01	275.83	134.03	40514
2007	69	12.60	3.93	10.22	0.00	415.00	216.58	40719
2007	70	11.94	4.65	9.94	0.00	530.00	341.51	40924
2007	71	15.75	-1.10	11.12	0.00	524.17	369.74	41130
2007	72	17.86	1.09	13.25	0.00	631.67	356.11	41336
2007	73	18.71	2.10	14.14	0.00	715.83	359.67	41543
2007	74	14.47	5.05	11.88	0.00	614.17	386.01	41749
2007	75	15.67	-0.45	11.24	0.00	616.67	355.71	41956
2007	76	18.75	0.58	13.75	0.00	766.67	292.52	42163
2007	77	19.31	4.36	15.20	0.23	959.17	342.17	42370
2007	78	14.52	0.92	10.78	3.25	40.00	42.96	42578
2007	79	4.27	0.27	3.17	0.61	45.83	147.06	42785
2007	80	5.53	-1.22	3.67	0.00	192.50	144.93	42992
2007	81	8.24	-2.13	5.39	0.00	370.00	297.01	43200
2007	82	8.68	1.54	6.72	1.35	360.83	141.28	43407
2007	83	5.86	3.23	5.14	0.45	68.33	52.25	43615
2007	84	13.95	2.63	10.84	0.00	415.00	360.50	43822
2007	85	13.97	3.00	10.95	0.00	503.33	275.79	44029
2007	86	13.25	2.16	10.20	0.00	555.83	335.87	44236
2007	87	13.25	-0.17	9.56	0.00	599.17	334.95	44443
2007	88	10.06	5.00	8.67	0.00	235.00	217.92	44650
2007	89	13.20	-0.33	9.48	0.00	377.50	316.59	44857
2007	90	15.38	6.07	12.82	0.00	693.33	313.06	45063
2007	91	16.58	3.13	12.88	0.00	748.33	310.98	45270
2007	92	17.15	3.59	13.42	0.00	981.67	422.46	45475
2007	93	18.54	2.32	14.08	0.08	706.92	358.74	45681
2007	94	11.67	6.08	10.13	0.01	364.62	250.86	45886
2007	95	14.46	0.56	10.64	0.00	726.15	454.67	46091
2007	96	19.55	1.92	14.70	0.00	927.69	424.47	46295
2007	97	18.84	6.60	15.47	0.00	862.14	408.77	46499
2007	98	16.62	7.19	14.03	0.00	808.57	438.68	46702
2007	99	20.14	1.68	15.06	0.00	875.71	405.71	46905
2007	100	22.06	4.29	17.17	0.00	1151.43	345.99	47107
2007	101	19.01	7.50	15.84	0.00	792.14	407.53	47309
2007	102	22.04	4.78	17.29	0.00	951.43	444.65	47510
2007	103	23.69	5.48	18.68	0.00	1165.00	453.56	47710
2007	104	23.60	6.78	18.97	0.00	1283.57	447.83	47910
2007	105	21.83	7.06	17.77	0.00	1173.57	478.19	48108
2007	106	18.99	6.43	15.54	0.00	1036.43	472.54	48306
2007	107	22.11	3.22	16.92	0.00	1271.43	467.79	48504
2007	108	19.19	6.36	15.66	0.00	629.29	225.05	48700
2007	109	16.48	3.68	12.96	0.00	815.00	433.28	48895
2007	110	21.61	2.66	16.40	0.00	1036.43	455.28	49089
2007	111	17.16	5.41	13.93	0.00	750.71	456.25	49282
2007	112	19.00	3.03	14.61	0.00	943.57	470.74	49475
2007	113	23.15	4.15	17.92	0.00	1362.14	463.65	49666
2007	114	20.78	9.24	17.61	0.00	934.29	216.47	49855
2007	115	20.88	7.77	17.27	0.00	928.57	447.66	50044
2007	116	22.04	5.33	17.44	0.00	984.29	426.32	50231
2007	117	23.15	5.41	18.27	0.00	1332.14	456.99	50417
2007	118	24.34	4.91	19.00	0.00	1575.71	487.58	50601
2007	119	24.32	6.59	19.44	0.00	1190.00	451.73	50784
2007	120	17.48	8.39	14.98	0.00	830.71	383.03	50966
2007	121	16.83	3.86	13.26	0.00	896.43	475.50	51145
2007	122	16.84	4.70	13.50	0.00	915.71	452.71	51324
2007	123	20.38	4.56	16.03	0.03	960.00	336.31	51500
2007	124	18.44	11.15	16.44	1.17	562.14	285.03	51674
2007	125	20.44	11.46	17.97	0.88	338.57	283.40	51847
2007	126	19.89	11.90	17.69	0.01	330.67	298.94	52018
2007	127	23.58	8.73	19.50	0.00	971.33	479.31	52187
2007	128	22.67	10.43	19.30	1.81	633.33	272.85	52353
2007	129	16.81	10.85	15.17	0.06	159.33	180.92	52518
2007	130	23.24	11.39	19.98	0.00	696.67	408.32	52680
2007	131	27.44	11.51	23.06	0.36	1278.67	497.09	52840
2007	132	21.54	12.37	19.02	0.05	370.00	290.75	52998
2007	133	25.84	10.58	21.64	0.00	884.00	441.22	53153
2007	134	29.02	14.68	25.08	0.00	1619.33	486.66	53306
2007	135	24.46	12.06	21.05	0.84	404.67	102.01	53456
2007	136	16.28	5.93	13.43	0.23	433.33	256.53	53603
2007	137	18.85	5.78	15.26	1.09	490.67	402.78	53748
2007	138	16.74	7.17	14.11	0.00	732.00	503.05	53889
2007	139	20.61	6.60	16.76	0.00	745.33	373.16	54028
2007	140	24.32	10.35	20.48	0.00	712.67	399.24	54164
2007	141	26.43	11.29	22.27	0.00	994.67	457.72	54297
2007	142	29.08	13.11	24.69	0.00	1395.33	470.58	54426
2007	143	27.84	15.62	24.48	0.00	1190.62	475.37	54552
2007	144	28.10	16.40	24.88	0.00	1085.62	444.23	54675
2007	145	29.77	15.16	25.75	0.00	1440.00	459.73	54795
2007	146	29.17	14.99	25.27	0.00	1277.50	458.05	54911
2007	147	27.65	15.11	24.20	0.00	1225.00	413.09	55023
2007	148	22.64	13.83	20.22	0.95	601.88	249.59	55132
2007	149	19.92	10.08	17.21	0.16	536.87	346.33	55237
2007	150	14.07	9.64	12.85	0.00	316.25	121.06	55339
2007	151	20.89	7.84	17.30	0.00	838.75	385.98	55436
2007	152	24.29	7.50	19.67	0.00	971.88	430.40	55530
2007	153	23.08	13.26	20.38	0.33	426.88	281.44	55619
2007	154	24.56	12.76	21.31	0.14	676.88	368.37	55705
2007	155	23.96	14.11	21.25	0.44	451.25	283.78	55786
2007	156	24.09	15.60	21.76	0.75	832.20	319.35	55863
2007	157	24.53	14.67	21.82	1.04	439.38	260.34	55936
2007	158	25.45	12.47	21.88	0.15	745.00	429.77	56004
2007	159	27.02	12.33	22.98	0.04	723.12	343.52	56068
2007	160	28.08	13.59	24.10	0.00	1183.75	410.96	56128
2007	161	28.49	13.99	24.50	0.00	1138.13	389.75	56183
2007	162	27.85	15.35	24.41	0.03	1289.38	438.46	56234
2007	163	27.25	15.86	24.12	0.46	938.75	327.01	56280
2007	164	28.17	14.01	24.28	0.00	1271.25	455.33	56321
2007	165	29.13	15.13	25.28	0.00	1225.00	468.13	56358
2007	166	29.70	16.17	25.98	0.00	1289.38	453.08	56390
2007	167	26.80	17.28	24.18	0.05	1270.00	434.68	56418
2007	168	27.94	14.77	24.32	0.00	1112.50	381.97	56440
2007	169	28.81	15.67	25.20	0.92	1385.63	404.18	56458
2007	170	29.74	17.56	26.39	0.00	1170.63	406.16	56472
2007	171	32.32	15.14	27.60	0.00	1501.25	439.76	56480
2007	172	33.59	19.10	29.61	0.00	1723.13	432.73	56484
2007	173	30.74	15.42	26.53	0.00	1480.62	384.87	56482
2007	174	27.26	14.86	23.85	0.03	995.00	256.11	56476
2007	175	28.65	14.73	24.82	0.00	1397.50	382.87	56466
2007	176	32.07	14.74	27.30	0.00	2018.75	463.25	56450
2007	177	28.51	16.25	25.14	0.02	1099.37	268.84	56430
2007	178	19.54	12.54	17.61	0.35	436.88	153.22	56405
2007	179	22.24	12.23	19.49	0.00	650.00	340.84	56375
2007	180	24.71	10.88	20.91	0.00	1046.25	348.70	56341
2007	181	25.19	14.16	22.16	0.23	955.63	325.52	56301
2007	182	28.94	12.07	24.30	0.00	1591.25	467.97	56258
2007	183	31.37	14.65	26.77	0.07	1837.50	447.11	56209
2007	184	27.72	13.97	23.94	0.14	1041.88	415.40	56156
2007	185	23.95	12.84	20.89	0.62	283.75	63.48	56099
2007	186	22.40	11.36	19.36	0.66	1028.13	428.09	56037
2007	187	25.33	12.58	21.82	0.00	1391.25	319.72	55971
2007	188	28.16	12.94	23.97	0.12	1460.62	444.62	55900
2007	189	28.66	15.99	25.18	0.02	1520.63	408.23	55825
2007	190	31.02	15.96	26.88	2.06	1565.00	403.79	55746
2007	191	24.74	11.29	21.04	0.31	340.00	214.83	55663
2007	192	21.08	8.31	17.57	0.11	688.12	324.22	55575
2007	193	22.74	8.55	18.84	0.00	943.75	295.43	55484
2007	194	26.22	11.69	22.22	0.00	1347.50	391.98	55388
2007	195	30.89	12.38	25.80	0.00	1611.88	479.37	55289
2007	196	33.13	15.62	28.31	0.00	1751.87	470.96	55186
2007	197	34.22	16.42	29.32	0.00	2331.87	499.11	55079
2007	198	36.57	16.29	30.99	0.00	2902.50	480.61	54968
2007	199	36.03	16.76	30.73	0.00	2647.50	468.23	54854
2007	200	35.78	21.34	31.81	0.00	2468.12	450.45	54736
2007	201	37.97	18.37	32.58	0.00	2975.00	473.89	54615
2007	202	34.78	18.54	30.31	0.00	2425.00	470.80	54490
2007	203	33.95	18.15	29.61	0.00	2460.00	487.16	54362
2007	204	31.53	13.05	26.45	0.00	1942.50	487.40	54231
2007	205	29.64	15.36	25.71	0.51	1393.12	252.09	54097
2007	206	26.63	11.69	22.52	0.00	1416.88	420.20	53960
2007	207	28.59	11.13	23.79	0.00	1720.00	513.95	53819
2007	208	32.21	12.72	26.85	0.54	1592.50	424.44	53676
2007	209	31.38	17.74	27.63	0.34	1275.63	367.93	53530
2007	210	27.54	17.24	24.71	0.98	1088.67	334.91	53382
2007	211	23.29	13.01	20.46	1.15	130.71	61.70	53230
2007	212	21.77	7.57	17.86	0.00	970.71	417.34	53076
2007	213	23.55	8.99	19.55	0.00	1263.57	502.88	52920
2007	214	27.33	8.32	22.10	0.00	1537.86	479.02	52761
2007	215	22.86	13.60	20.31	0.05	539.29	131.78	52600
2007	216	23.77	13.85	21.04	0.00	1334.29	452.59	52437
2007	217	25.55	11.35	21.65	0.00	1454.29	474.58	52271
2007	218	29.42	11.74	24.56	0.00	1590.71	438.49	52103
2007	219	31.23	13.40	26.33	0.14	1851.43	435.58	51934
2007	220	29.74	16.45	26.09	0.00	1395.71	346.88	51762
2007	221	30.35	16.12	26.44	1.72	1456.07	330.99	51588
2007	222	22.71	15.64	20.77	0.10	545.71	273.38	51413
2007	223	21.41	15.16	19.69	0.53	353.57	167.48	51235
2007	224	24.68	15.48	22.15	0.37	459.29	228.34	51057
2007	225	28.07	14.40	24.31	0.21	1075.00	421.39	50876
2007	226	28.84	13.84	24.72	0.00	1361.43	468.94	50694
2007	227	30.46	15.20	26.26	0.00	1365.00	475.27	50510
2007	228	32.40	16.90	28.14	0.00	1769.29	456.32	50325
2007	229	27.24	18.54	24.85	0.40	1183.57	450.10	50138
2007	230	25.92	13.44	22.49	0.00	1246.43	455.57	49951
2007	231	25.51	15.37	22.72	0.10	563.57	240.32	49761
2007	232	23.18	14.76	20.86	3.85	237.86	147.35	49571
2007	233	25.72	13.54	22.37	0.07	919.29	412.31	49380
2007	234	27.20	16.48	24.25	0.16	812.86	372.67	49187
2007	235	29.58	17.24	26.19	0.24	1083.57	399.38	48993
2007	236	28.27	15.34	24.71	0.00	1006.43	430.14	48798
2007	237	27.77	17.86	25.04	0.00	1394.29	376.98	48603
2007	238	29.08	15.36	25.31	0.00	1489.29	358.34	48406
2007	239	29.91	14.78	25.75	0.00	1735.71	469.85	48208
2007	240	24.49	15.50	22.02	0.17	877.14	334.80	48010
2007	241	19.62	14.27	18.15	2.84	161.43	95.50	47811
2007	242	16.14	12.05	15.02	0.40	120.71	69.06	47611
2007	243	20.41	9.23	17.34	0.00	485.71	294.53	47410
2007	244	21.96	10.57	18.83	0.00	701.43	243.51	47209
2007	245	21.90	11.12	18.94	0.00	778.57	367.94	47007
2007	246	24.00	12.46	20.83	1.70	960.00	379.10	46805
2007	247	18.35	10.92	16.31	0.08	293.08	119.45	46601
2007	248	13.03	7.34	11.47	1.42	408.46	226.87	46398
2007	249	10.38	7.79	9.67	2.08	140.77	68.09	46194
2007	250	12.11	8.46	11.11	1.79	72.31	64.11	45989
2007	251	18.63	11.52	16.67	0.00	558.46	194.52	45784
2007	252	19.42	10.44	16.95	0.00	496.15	146.35	45579
2007	253	19.87	6.72	16.25	0.37	560.00	237.40	45373
2007	254	17.66	11.87	16.07	0.12	496.92	328.46	45167
2007	255	18.33	7.90	15.46	0.00	550.77	198.10	44961
2007	256	19.99	9.60	17.13	0.00	746.92	366.08	44755
2007	257	22.12	7.87	18.20	0.00	785.00	415.79	44548
2007	258	22.76	10.98	19.52	0.00	747.50	275.97	44341
2007	259	22.76	8.70	18.89	0.00	773.33	354.45	44134
2007	260	25.34	10.80	21.34	0.00	755.83	315.75	43927
2007	261	21.26	12.70	18.91	3.82	303.33	73.60	43719
2007	262	15.88	8.11	13.74	0.00	598.33	397.44	43512
2007	263	16.43	3.64	12.91	0.00	609.17	406.10	43304
2007	264	18.26	3.27	14.14	0.00	685.83	439.28	43097
2007	265	19.55	4.23	15.34	0.00	753.33	427.27	42890
2007	266	20.52	5.24	16.32	0.00	725.83	355.86	42682
2007	267	21.07	5.86	16.89	0.00	790.83	392.69	42475
2007	268	20.92	6.68	17.00	0.00	590.83	329.44	42268
2007	269	16.23	11.50	14.93	0.55	401.67	184.18	42060
2007	270	15.25	11.23	14.14	1.15	155.83	131.57	41854
2007	271	17.54	9.88	15.43	1.90	385.00	341.85	41647
2007	272	20.23	7.80	16.81	0.30	681.67	363.93	41440
2007	273	21.12	6.34	17.06	0.00	723.33	377.86	41234
2007	274	21.94	6.25	17.63	0.00	745.00	364.03	41028
2007	275	22.05	7.32	18.00	0.00	702.50	303.58	40822
2007	276	22.40	10.47	19.12	0.00	405.45	264.39	40617
2007	277	18.19	10.61	16.11	0.00	168.18	135.84	40412
2007	278	18.64	10.71	16.46	0.41	133.64	119.63	40208
2007	279	15.92	10.64	14.47	0.00	321.82	146.94	40003
2007	280	16.12	7.55	13.76	0.00	409.09	309.62	39800
2007	281	18.25	3.38	14.16	0.00	563.64	370.51	39597
2007	282	17.21	4.43	13.70	0.00	430.91	326.98	39394
2007	283	14.66	5.47	12.13	0.00	325.45	240.46	39192
2007	284	15.72	9.25	13.94	0.00	491.82	246.49	38991
2007	285	17.33	5.02	13.94	0.05	432.73	253.04	38790
2007	286	13.52	6.55	11.60	0.00	491.82	224.09	38590
2007	287	12.31	0.18	8.97	0.00	578.18	357.19	38391
2007	288	13.96	-1.77	9.63	0.00	621.82	343.20	38193
2007	289	16.25	-0.20	11.73	0.00	596.36	321.68	37995
2007	290	17.65	1.03	13.08	0.00	610.91	316.83	37799
2007	291	12.16	3.00	9.64	0.39	193.64	67.16	37603
2007	292	10.80	3.95	8.92	0.00	567.27	257.49	37408
2007	293	6.19	-0.90	4.24	0.00	231.82	92.30	37214
2007	294	7.37	1.93	5.87	0.02	203.64	89.53	37022
2007	295	6.08	3.37	5.33	1.27	252.73	58.24	36830
2007	296	5.80	4.02	5.31	1.49	175.45	46.39	36640
2007	297	6.88	3.92	6.07	0.06	93.64	53.82	36451
2007	298	9.35	6.22	8.49	0.16	149.09	60.95	36263
2007	299	8.02	5.32	7.28	0.15	129.01	39.07	36076
2007	300	10.19	5.90	9.01	0.15	220.02	77.54	35891
2007	301	8.61	7.28	8.24	1.62	69.40	22.77	35707
2007	302	11.89	7.70	10.74	0.01	238.78	82.83	35525
2007	303	10.01	7.73	9.38	0.22	124.81	65.95	35345
2007	304	12.39	7.58	11.07	0.00	275.92	263.19	35166
2007	305	11.61	3.16	9.29	0.00	403.70	281.13	34988
2007	306	13.64	-0.15	9.85	0.00	610.80	216.53	34813
2007	307	14.54	8.46	12.87	0.00	377.78	135.20	34639
2007	308	11.67	7.27	10.46	0.06	245.56	90.08	34468
2007	309	9.79	2.19	7.70	0.00	335.46	216.10	34298
2007	310	6.26	-2.10	3.96	0.00	221.11	98.32	34130
2007	311	10.02	0.06	7.28	0.01	514.44	184.46	33964
2007	312	11.87	3.09	9.46	0.06	503.33	90.99	33801
2007	313	7.89	2.75	6.48	0.84	173.33	23.34	33640
2007	314	8.94	-0.61	6.31	0.01	518.89	167.46	33481
2007	315	9.55	-0.34	6.83	0.24	274.44	136.77	33325
2007	316	8.97	1.12	6.81	0.11	537.78	229.26	33171
2007	317	6.86	-0.78	4.76	0.14	240.00	193.75	33019
2007	318	5.11	-0.73	3.50	0.00	176.67	82.85	32871
2007	319	3.08	0.18	2.28	0.01	257.78	57.03	32725
2007	320	1.71	-0.50	1.10	0.04	255.56	73.84	32582
2007	321	1.80	-1.21	0.97	0.40	194.44	85.72	32441
2007	322	0.99	-0.48	0.59	0.81	70.00	58.96	32304
2007	323	2.50	-0.17	1.77	0.00	92.22	127.99	32170
2007	324	1.29	-1.47	0.53	0.00	140.00	82.81	32039
2007	325	6.01	-1.07	4.06	0.00	241.11	175.12	31911
2007	326	13.79	0.02	10.00	0.00	348.89	175.19	31786
2007	327	15.39	8.45	13.48	0.00	685.56	140.65	31665
2007	328	12.80	5.56	10.81	0.00	323.33	148.96	31547
2007	329	7.23	3.78	6.28	0.86	172.22	31.58	31433
2007	330	7.73	0.41	5.72	0.01	412.22	178.61	31322
2007	331	5.45	-2.52	3.26	0.00	191.11	93.55	31215
2007	332	4.71	-3.03	2.58	0.00	262.22	199.42	31112
2007	333	3.77	-4.27	1.56	0.00	278.89	214.31	31012
2007	334	4.22	-4.94	1.70	0.00	178.89	133.97	30917
2007	335	7.83	-1.85	5.17	0.04	282.22	168.24	30825
2007	336	8.26	-1.48	5.58	0.07	186.67	133.45	30738
2007	337	10.16	2.69	8.11	0.47	377.78	26.38	30654
2007	338	5.96	-1.02	4.04	0.10	236.67	59.68	30575
2007	339	8.39	-1.27	5.73	0.00	361.11	150.03	30500
2007	340	8.52	-0.79	5.96	0.00	365.56	152.58	30430
2007	341	7.25	-0.14	5.22	1.27	330.00	70.54	30363
2007	342	8.30	3.38	6.95	0.00	243.33	96.50	30301
2007	343	6.06	-1.11	4.09	0.24	232.22	101.34	30244
2007	344	5.51	1.98	4.54	0.01	128.89	55.81	30191
2007	345	7.55	1.12	5.78	0.79	191.11	61.33	30143
2007	346	5.05	2.86	4.45	0.29	167.78	22.87	30099
2007	347	5.48	1.13	4.28	0.00	337.78	101.13	30060
2007	348	1.79	-2.57	0.59	0.46	120.00	46.98	30025
2007	349	-0.07	-4.53	-1.30	0.71	162.50	100.09	29995
2007	350	-0.23	-1.92	-0.69	0.00	126.25	85.60	29970
2007	351	-1.25	-3.91	-1.98	0.00	145.00	56.13	29950
2007	352	-1.52	-7.84	-3.26	0.00	65.00	61.84	29934
2007	353	-1.96	-9.93	-4.15	0.00	96.25	74.46	29924
2007	354	-2.65	-5.00	-3.30	0.00	60.00	49.14	29918
2007	355	-4.50	-6.17	-4.96	0.00	60.00	46.53	29916
2007	356	-4.88	-6.14	-5.23	0.00	60.00	40.07	29920
2007	357	-4.60	-5.62	-4.88	0.00	60.00	34.69	29928
2007	358	-3.43	-5.50	-4.00	0.07	60.00	32.75	29941
2007	359	-2.50	-6.61	-3.63	0.09	63.75	50.43	29959
2007	360	-2.10	-4.80	-2.84	0.00	70.00	37.29	29982
2007	361	-2.03	-3.49	-2.43	0.00	70.00	31.62	30009
2007	362	-2.79	-4.43	-3.24	0.00	62.50	28.88	30042
2007	363	-3.83	-5.02	-4.16	0.00	60.00	26.18	30078
2007	364	-4.41	-5.81	-4.79	0.00	60.00	29.42	30120
2007	365	-0.56	-5.24	-1.85	0.01	71.25	47.86	30166
2008	1	0.34	-4.46	-0.98	0.04	129.70	59.32	30217
2008	2	-0.36	-3.43	-1.20	0.00	85.09	55.81	30272
2008	3	-1.43	-3.90	-2.11	0.00	65.41	35.64	30331
2008	4	-3.29	-6.11	-4.07	0.00	64.99	44.72	30396
2008	5	-3.68	-7.73	-4.79	0.06	86.27	70.30	30464
2008	6	1.49	-4.32	-0.11	0.12	162.44	59.82	30537
2008	7	3.57	-3.89	1.52	0.02	223.44	110.99	30614
2008	8	7.76	-2.93	4.82	0.00	368.89	198.02	30695
2008	9	1.02	-4.22	-0.42	0.00	145.41	158.47	30781
2008	10	-0.67	-2.13	-1.07	0.02	42.38	71.23	30870
2008	11	3.47	-2.06	1.95	0.00	177.84	81.09	30964
2008	12	12.58	1.26	9.47	0.01	515.21	129.86	31061
2008	13	7.37	1.95	5.88	0.15	224.01	48.84	31162
2008	14	5.99	0.69	4.53	0.00	201.90	72.90	31268
2008	15	8.07	1.05	6.14	0.00	284.84	144.17	31376
2008	16	9.87	1.91	7.68	0.00	348.27	126.35	31489
2008	17	8.10	3.39	6.80	0.01	209.32	36.95	31605
2008	18	8.27	1.81	6.49	0.00	271.20	89.41	31724
2008	19	7.81	2.49	6.35	0.11	226.84	54.29	31847
2008	20	15.20	2.91	11.82	0.00	632.58	242.77	31974
2008	21	12.48	1.49	9.46	0.00	503.32	212.01	32103
2008	22	7.50	-0.08	5.42	0.02	290.42	51.77	32236
2008	23	5.66	-0.57	3.95	0.00	224.09	169.22	32372
2008	24	6.99	-3.81	4.02	0.00	353.27	215.77	32510
2008	25	8.67	-2.21	5.68	0.00	394.83	175.89	32652
2008	26	8.23	-4.58	4.71	0.00	419.45	222.91	32797
2008	27	12.69	-0.78	8.99	0.00	569.47	62.27	32944
2008	28	10.50	3.34	8.53	0.00	335.65	67.18	33094
2008	29	9.27	0.45	6.84	0.00	359.79	154.88	33247
2008	30	6.84	-1.10	4.66	0.00	287.75	167.17	33402
2008	31	7.20	-0.51	5.08	0.00	288.41	166.67	33559
2008	32	9.30	-1.27	6.39	0.00	403.91	171.73	33719
2008	33	9.25	3.53	7.68	0.62	262.42	26.92	33882
2008	34	6.13	-0.42	4.33	0.02	239.67	155.80	34046
2008	35	11.02	1.20	8.32	0.05	429.71	172.26	34213
2008	36	8.80	3.55	7.36	0.03	238.56	97.93	34382
2008	37	9.23	-0.41	6.58	0.00	380.10	136.80	34552
2008	38	8.79	1.08	6.67	0.00	318.57	264.76	34725
2008	39	8.16	0.82	6.14	0.00	295.81	222.98	34900
2008	40	7.88	-2.57	5.01	0.00	329.00	273.42	35076
2008	41	7.25	-2.84	4.48	0.00	291.00	254.77	35254
2008	42	6.41	-2.53	3.95	0.00	263.00	199.86	35434
2008	43	5.90	-4.67	2.99	0.00	288.00	260.39	35615
2008	44	6.65	-6.32	3.08	0.00	350.00	302.46	35798
2008	45	3.97	-4.20	1.72	0.00	199.00	161.53	35983
2008	46	3.39	-1.04	2.17	0.00	327.00	194.45	36169
2008	47	0.16	-4.59	-1.15	0.02	338.00	253.25	36356
2008	48	0.95	-10.64	-2.24	0.00	331.00	295.36	36544
2008	49	10.89	-5.94	6.26	0.00	595.00	150.98	36734
2008	50	11.45	-2.30	7.67	0.00	583.00	275.27	36925
2008	51	11.99	-4.35	7.50	0.00	519.00	299.53	37117
2008	52	14.27	-2.06	9.78	0.00	604.00	249.32	37310
2008	53	16.21	1.96	12.29	0.13	722.00	206.65	37505
2008	54	17.15	3.67	13.44	0.00	710.91	259.32	37700
2008	55	18.07	0.73	13.30	0.00	820.91	304.28	37896
2008	56	19.70	1.53	14.70	0.00	980.91	313.06	38093
2008	57	17.95	1.08	13.31	0.00	805.45	312.37	38291
2008	58	16.89	2.30	12.88	0.00	782.73	232.66	38490
2008	59	12.08	2.27	9.38	0.00	500.91	205.59	38689
2008	60	14.68	0.96	10.91	0.00	600.91	226.62	38890
2008	61	15.54	5.83	12.87	0.12	674.55	106.52	39091
2008	62	18.57	4.89	14.81	0.00	889.17	274.81	39292
2008	63	17.76	3.30	13.78	0.33	690.00	184.49	39495
2008	64	12.65	3.73	10.20	0.00	389.17	100.43	39697
2008	65	5.30	1.98	4.39	0.00	342.50	158.41	39901
2008	66	4.14	-2.52	2.31	0.00	387.50	214.27	40105
2008	67	5.92	0.38	4.40	0.36	416.67	103.56	40309
2008	68	6.26	2.48	5.22	0.29	105.00	94.40	40514
2008	69	12.68	1.34	9.56	0.00	300.00	293.00	40719
2008	70	15.47	1.24	11.56	0.00	647.50	360.34	40924
2008	71	10.92	6.21	9.62	0.07	324.17	98.92	41130
2008	72	15.69	1.58	11.81	0.14	480.00	191.14	41336
2008	73	13.60	3.23	10.75	0.00	890.83	322.94	41543
2008	74	12.60	0.14	9.17	0.00	577.50	142.12	41749
2008	75	14.36	5.22	11.85	0.00	605.83	279.92	41956
2008	76	18.91	6.37	15.46	0.47	903.33	271.36	42163
2008	77	16.37	4.08	12.99	0.03	568.33	277.03	42370
2008	78	7.68	1.54	5.99	0.13	185.00	155.57	42578
2008	79	8.58	-3.13	5.36	0.00	397.50	356.74	42785
2008	80	8.36	-2.42	5.40	0.00	385.00	394.22	42992
2008	81	9.34	-2.59	6.06	0.69	510.00	196.12	43200
2008	82	8.03	0.88	6.06	0.11	246.67	207.91	43407
2008	83	6.63	0.56	4.96	2.35	200.83	108.54	43615
2008	84	6.92	0.22	5.08	0.00	285.83	184.89	43822
2008	85	7.29	-1.53	4.86	0.00	458.33	315.18	44029
2008	86	9.38	-3.20	5.92	0.00	530.83	322.95	44236
2008	87	10.83	0.18	7.90	0.00	424.17	201.15	44443
2008	88	12.40	4.94	10.35	0.00	413.33	279.68	44650
2008	89	14.35	5.27	11.85	0.02	475.83	273.37	44857
2008	90	16.49	-0.08	11.93	0.00	851.67	439.69	45063
2008	91	17.45	2.97	13.47	0.00	956.67	447.07	45270
2008	92	18.18	3.14	14.04	0.00	965.00	406.00	45475
2008	93	14.80	6.82	12.61	0.13	573.08	155.89	45681
2008	94	12.15	1.73	9.28	0.00	532.31	345.02	45886
2008	95	12.49	4.69	10.35	0.00	586.15	298.81	46091
2008	96	13.59	2.69	10.59	0.00	616.15	353.37	46295
2008	97	16.06	0.10	11.67	0.06	828.57	397.94	46499
2008	98	15.20	3.47	11.97	0.13	616.28	258.02	46702
2008	99	10.14	2.97	8.17	0.00	328.68	179.09	46905
2008	100	19.44	2.56	14.80	0.00	948.18	350.05	47107
2008	101	21.10	9.45	17.90	0.00	866.67	424.44	47309
2008	102	20.79	12.39	18.48	0.02	687.76	356.14	47510
2008	103	16.30	8.83	14.25	0.08	489.02	175.43	47710
2008	104	16.18	5.13	13.14	0.00	630.94	301.61	47910
2008	105	17.34	2.06	13.14	0.09	802.04	447.53	48108
2008	106	13.94	5.07	11.50	0.27	480.10	238.89	48306
2008	107	13.61	5.41	11.36	0.11	446.07	297.50	48504
2008	108	14.39	1.46	10.83	0.03	479.29	291.23	48700
2008	109	18.03	3.64	14.07	0.02	707.86	295.73	48895
2008	110	19.99	9.39	17.07	0.16	720.00	340.79	49089
2008	111	21.91	5.07	17.28	0.08	1188.57	422.78	49282
2008	112	22.67	6.58	18.25	0.95	865.00	360.08	49475
2008	113	18.14	6.25	14.87	0.24	559.29	333.95	49666
2008	114	14.10	8.18	12.47	0.02	547.86	345.25	49855
2008	115	16.49	4.01	13.06	0.00	858.57	488.49	50044
2008	116	16.66	2.94	12.89	0.15	627.86	276.67	50231
2008	117	17.52	6.71	14.55	0.27	655.71	439.26	50417
2008	118	19.47	5.11	15.52	0.00	1047.86	496.35	50601
2008	119	21.12	2.63	16.04	0.00	1284.29	505.93	50784
2008	120	18.70	7.42	15.60	0.02	804.29	330.99	50966
2008	121	19.12	8.86	16.30	0.00	725.00	352.97	51145
2008	122	18.12	8.69	15.53	0.87	531.43	234.92	51324
2008	123	19.52	6.33	15.89	0.02	941.43	406.06	51500
2008	124	18.99	6.76	15.63	0.00	980.71	508.28	51674
2008	125	18.63	6.08	15.18	0.00	1007.14	506.14	51847
2008	126	16.85	5.00	13.59	0.00	564.00	365.07	52018
2008	127	19.16	9.73	16.57	0.02	642.67	233.10	52187
2008	128	19.31	7.48	16.06	0.00	960.67	492.58	52353
2008	129	20.80	5.07	16.47	0.00	1141.33	517.62	52518
2008	130	20.77	8.01	17.26	0.00	1078.67	426.96	52680
2008	131	20.40	6.24	16.51	0.00	971.33	411.61	52840
2008	132	20.02	7.83	16.67	0.00	1161.33	509.58	52998
2008	133	22.54	4.66	17.62	0.00	1325.33	448.33	53153
2008	134	23.78	5.63	18.79	0.00	1486.00	456.16	53306
2008	135	24.63	6.92	19.76	0.00	1297.33	402.37	53456
2008	136	26.32	8.01	21.28	0.05	1370.67	423.42	53603
2008	137	24.36	11.43	20.80	0.10	1018.00	326.65	53748
2008	138	24.48	12.17	21.09	0.00	1161.33	379.52	53889
2008	139	22.11	15.59	20.32	0.07	868.00	203.20	54028
2008	140	21.51	11.16	18.66	1.10	564.00	352.94	54164
2008	141	13.31	8.26	11.92	0.45	206.67	115.28	54297
2008	142	15.70	8.96	13.85	0.20	404.33	326.59	54426
2008	143	18.86	10.22	16.48	0.00	667.19	305.15	54552
2008	144	19.96	11.13	17.53	0.05	748.75	300.92	54675
2008	145	23.76	11.82	20.48	0.05	883.13	410.70	54795
2008	146	23.01	10.49	19.57	0.00	820.63	436.62	54911
2008	147	25.59	13.23	22.19	0.00	925.63	396.58	55023
2008	148	30.94	12.98	26.00	0.00	1761.25	493.98	55132
2008	149	32.10	14.65	27.30	0.00	2338.13	468.06	55237
2008	150	26.59	15.46	23.53	0.00	1465.62	441.30	55339
2008	151	27.62	13.26	23.67	0.01	1256.25	435.05	55436
2008	152	27.38	13.16	23.47	0.00	1433.13	498.86	55530
2008	153	28.92	11.90	24.24	0.01	1520.00	458.11	55619
2008	154	26.85	15.89	23.84	0.06	1317.50	425.46	55705
2008	155	26.75	12.85	22.93	2.85	935.33	339.69	55786
2008	156	22.58	15.48	20.63	1.06	671.71	228.06	55863
2008	157	19.77	15.87	18.70	1.16	352.90	179.49	55936
2008	158	23.50	14.80	21.11	0.23	819.73	349.26	56004
2008	159	20.16	13.84	18.42	0.50	537.09	200.29	56068
2008	160	21.90	14.14	19.77	0.22	691.19	291.83	56128
2008	161	24.88	13.73	21.81	0.05	1042.96	396.92	56183
2008	162	26.40	12.48	22.57	0.00	1289.58	484.05	56234
2008	163	26.67	13.52	23.05	0.62	1268.79	365.32	56280
2008	164	20.84	14.20	19.01	0.00	579.62	237.74	56321
2008	165	19.61	12.27	17.59	0.01	583.56	256.22	56358
2008	166	19.04	9.46	16.41	0.15	681.30	352.01	56390
2008	167	20.28	10.03	17.46	0.00	764.26	385.52	56418
2008	168	22.36	8.71	18.61	0.00	1017.70	368.71	56440
2008	169	22.66	12.40	19.84	0.81	874.67	255.59	56458
2008	170	23.79	14.77	21.31	0.02	854.18	303.51	56472
2008	171	26.82	11.25	22.54	0.00	1396.79	482.65	56480
2008	172	28.43	14.71	24.66	0.02	1429.66	398.17	56484
2008	173	29.52	14.60	25.42	0.04	1585.22	466.34	56482
2008	174	31.29	15.57	26.97	0.00	1789.47	471.35	56476
2008	175	32.02	16.58	27.77	0.06	1843.82	448.41	56466
2008	176	31.25	16.91	27.31	0.49	1703.31	447.65	56450
2008	177	29.94	15.36	25.93	0.09	1602.27	470.67	56430
2008	178	29.44	17.97	26.29	0.69	1603.75	438.79	56405
2008	179	26.81	16.31	23.92	0.22	988.12	312.07	56375
2008	180	26.87	15.67	23.79	0.00	1344.37	437.34	56341
2008	181	29.11	15.21	25.29	0.00	1637.50	474.24	56301
2008	182	26.04	16.84	23.51	2.60	823.75	224.02	56258
2008	183	28.78	14.99	24.99	0.00	1647.50	492.80	56209
2008	184	30.14	15.15	26.02	0.00	1724.38	462.28	56156
2008	185	30.36	16.60	26.58	0.00	1735.63	444.04	56099
2008	186	27.68	18.20	25.07	0.10	1485.63	334.78	56037
2008	187	26.46	14.21	23.09	0.00	1778.13	416.02	55971
2008	188	28.23	11.57	23.65	0.05	1548.13	454.65	55900
2008	189	30.66	17.47	27.03	0.99	1608.13	385.58	55825
2008	190	22.96	13.63	20.39	0.48	357.50	114.67	55746
2008	191	24.72	10.67	20.86	0.02	1231.88	395.06	55663
2008	192	26.31	15.28	23.28	0.00	1121.25	317.61	55575
2008	193	30.65	14.30	26.15	0.00	1935.63	502.13	55484
2008	194	31.25	15.54	26.93	0.00	1910.63	489.64	55388
2008	195	29.97	15.89	26.10	3.41	1200.63	299.07	55289
2008	196	20.40	13.83	18.59	2.50	326.88	146.33	55186
2008	197	22.32	12.68	19.67	0.00	1171.88	306.29	55079
2008	198	27.16	13.93	23.52	0.00	1556.88	395.68	54968
2008	199	26.26	13.99	22.89	2.07	856.88	350.75	54854
2008	200	21.30	14.23	19.36	0.09	691.88	277.48	54736
2008	201	25.95	12.65	22.29	0.00	1266.25	496.75	54615
2008	202	27.68	14.54	24.07	2.21	1226.87	412.19	54490
2008	203	21.89	14.94	19.98	0.00	636.23	215.41	54362
2008	204	20.01	12.80	18.03	0.00	588.98	312.13	54231
2008	205	16.45	11.34	15.04	1.88	367.38	60.07	54097
2008	206	19.86	13.83	18.20	0.00	509.05	110.32	53960
2008	207	24.60	16.38	22.34	0.01	836.09	152.32	53819
2008	208	26.35	16.93	23.76	0.02	1011.84	386.36	53676
2008	209	28.31	17.54	25.35	0.00	1229.00	484.59	53530
2008	210	28.09	16.25	24.83	0.00	1288.94	416.62	53382
2008	211	29.27	15.27	25.42	0.00	1512.54	436.08	53230
2008	212	28.02	15.96	24.70	0.00	1298.47	279.91	53076
2008	213	29.67	15.76	25.84	0.00	1540.02	385.48	52920
2008	214	30.15	17.48	26.67	0.00	1498.59	358.02	52761
2008	215	29.91	16.51	26.23	0.09	1528.00	374.80	52600
2008	216	29.57	15.18	25.61	0.03	1559.91	430.89	52437
2008	217	30.93	16.31	26.91	0.52	1691.85	379.06	52271
2008	218	24.58	17.65	22.67	0.09	735.45	292.87	52103
2008	219	26.87	13.39	23.16	0.00	1300.53	450.98	51934
2008	220	27.83	14.29	24.11	0.00	1373.86	427.78	51762
2008	221	26.23	14.77	23.08	1.95	1142.31	297.87	51588
2008	222	23.59	14.82	21.18	0.24	828.45	369.23	51413
2008	223	24.83	10.33	20.84	0.00	1207.17	429.46	51235
2008	224	26.12	12.16	22.28	0.00	1271.73	464.92	51057
2008	225	29.09	12.83	24.62	0.00	1614.99	434.04	50876
2008	226	27.49	18.24	24.95	0.04	1062.28	421.03	50694
2008	227	28.22	16.27	24.93	0.00	1305.30	411.99	50510
2008	228	31.25	16.57	27.21	2.93	1724.63	324.70	50325
2008	229	23.39	12.99	20.53	0.30	918.99	252.12	50138
2008	230	22.33	8.34	18.48	0.00	1029.07	376.30	49951
2008	231	25.64	10.45	21.46	0.00	1292.60	426.18	49761
2008	232	27.77	12.47	23.56	0.00	1459.46	463.72	49571
2008	233	26.18	12.62	22.45	0.00	1256.18	414.71	49380
2008	234	26.82	15.08	23.59	0.00	1197.17	402.95	49187
2008	235	28.74	13.64	24.59	0.00	1528.87	405.36	48993
2008	236	23.87	14.19	21.21	1.84	900.27	254.53	48798
2008	237	21.76	13.23	19.41	0.01	734.09	332.60	48603
2008	238	23.34	8.95	19.38	0.00	1105.69	389.31	48406
2008	239	26.00	12.09	22.17	0.00	1260.92	399.55	48208
2008	240	27.01	13.39	23.26	0.00	1317.97	405.16	48010
2008	241	27.67	12.83	23.59	0.00	1429.56	390.12	47811
2008	242	25.93	14.46	22.78	0.00	1124.34	333.89	47611
2008	243	22.60	15.21	20.57	0.00	692.99	229.27	47410
2008	244	23.82	8.52	19.61	0.00	1170.85	403.05	47209
2008	245	24.07	9.46	20.05	0.00	1161.10	338.57	47007
2008	246	26.52	11.27	22.33	0.00	1360.06	372.01	46805
2008	247	28.36	13.57	24.29	0.00	1481.93	394.34	46601
2008	248	29.00	15.85	25.38	0.00	1614.62	392.47	46398
2008	249	28.96	17.28	25.75	0.00	1641.54	378.62	46194
2008	250	30.39	18.57	27.14	0.00	1833.08	399.44	45989
2008	251	30.19	17.82	26.79	0.64	1736.15	363.88	45784
2008	252	24.00	15.00	21.52	0.00	1121.54	356.09	45579
2008	253	25.44	10.79	21.41	0.00	1306.92	439.25	45373
2008	254	27.41	11.54	23.05	0.00	1358.46	399.41	45167
2008	255	28.50	15.67	24.97	0.01	1524.62	197.64	44961
2008	256	25.97	15.75	23.16	0.53	993.08	172.99	44755
2008	257	19.24	12.22	17.31	0.02	715.83	155.56	44548
2008	258	13.07	8.96	11.94	1.16	441.67	90.49	44341
2008	259	10.02	7.46	9.32	0.41	226.67	72.16	44134
2008	260	9.31	7.60	8.84	0.04	355.83	67.07	43927
2008	261	12.90	7.01	11.28	0.00	661.67	223.46	43719
2008	262	14.80	3.84	11.79	0.00	679.17	208.20	43512
2008	263	14.39	2.57	11.14	0.00	647.50	214.21	43304
2008	264	12.00	9.39	11.28	0.04	528.33	78.56	43097
2008	265	12.26	8.57	11.25	0.07	439.17	89.05	42890
2008	266	13.53	8.58	12.17	0.09	415.00	166.12	42682
2008	267	14.93	7.88	12.99	0.00	558.33	145.68	42475
2008	268	15.95	6.66	13.40	0.05	603.33	195.06	42268
2008	269	14.65	9.10	13.12	0.85	259.17	104.53	42060
2008	270	14.34	8.21	12.65	0.00	500.83	207.79	41854
2008	271	14.89	9.50	13.41	0.00	573.33	157.83	41647
2008	272	16.32	7.87	14.00	0.00	612.50	174.32	41440
2008	273	17.78	2.88	13.68	0.00	845.00	367.90	41234
2008	274	19.10	4.47	15.08	0.00	766.67	307.59	41028
2008	275	20.03	8.40	16.83	0.00	767.50	191.38	40822
2008	276	20.77	7.10	17.01	0.00	767.27	168.04	40617
2008	277	15.47	9.33	13.78	0.77	284.55	54.02	40412
2008	278	11.31	7.07	10.14	0.07	366.36	100.02	40208
2008	279	15.78	2.58	12.15	0.00	727.27	368.47	40003
2008	280	20.04	2.90	15.33	0.03	781.82	209.41	39800
2008	281	19.93	7.65	16.55	0.00	532.73	169.21	39597
2008	282	19.48	6.56	15.93	0.00	567.27	211.45	39394
2008	283	20.87	8.32	17.42	1.23	490.00	181.06	39192
2008	284	19.07	9.48	16.43	0.00	457.27	199.73	38991
2008	285	20.15	6.60	16.42	0.00	562.73	308.84	38790
2008	286	20.77	6.52	16.85	0.00	609.09	272.09	38590
2008	287	22.06	6.23	17.71	0.00	747.27	223.61	38391
2008	288	21.88	6.42	17.63	0.00	825.45	170.78	38193
2008	289	22.40	8.15	18.48	0.00	780.91	192.84	37995
2008	290	22.27	9.30	18.70	0.52	717.27	250.01	37799
2008	291	17.01	6.25	14.05	0.00	333.64	73.39	37603
2008	292	13.93	0.28	10.18	0.00	446.36	318.92	37408
2008	293	15.60	0.77	11.52	0.00	535.45	201.88	37214
2008	294	17.76	1.25	13.22	0.00	523.64	312.79	37022
2008	295	17.55	3.55	13.70	0.00	374.55	265.27	36830
2008	296	19.03	4.26	14.97	0.00	390.91	186.23	36640
2008	297	14.45	7.72	12.60	0.00	419.09	112.15	36451
2008	298	12.65	1.34	9.54	0.00	379.09	165.85	36263
2008	299	10.46	3.36	8.51	0.00	248.18	90.06	36076
2008	300	10.81	6.31	9.57	0.00	328.18	112.47	35891
2008	301	12.12	2.33	9.43	0.00	269.00	169.75	35707
2008	302	20.56	3.82	15.96	0.20	678.00	219.56	35525
2008	303	22.56	10.58	19.27	0.63	859.00	179.60	35345
2008	304	19.43	10.55	16.99	0.00	754.00	191.32	35166
2008	305	18.40	5.64	14.89	0.04	824.00	173.91	34988
2008	306	16.48	9.83	14.65	0.31	273.00	135.20	34813
2008	307	12.85	8.12	11.55	0.00	143.00	41.30	34639
2008	308	20.15	8.52	16.95	0.00	722.00	136.17	34468
2008	309	18.58	8.11	15.70	0.00	402.00	148.95	34298
2008	310	18.91	8.80	16.13	0.00	416.67	147.48	34130
2008	311	18.11	8.90	15.58	0.41	447.78	124.64	33964
2008	312	14.05	11.10	13.24	0.87	74.44	34.99	33801
2008	313	12.90	9.49	11.96	0.30	75.56	15.13	33640
2008	314	13.45	7.58	11.84	0.00	186.67	100.36	33481
2008	315	11.07	6.83	9.90	0.00	81.11	59.53	33325
2008	316	8.72	4.50	7.56	0.00	130.00	44.81	33171
2008	317	7.62	5.47	7.03	0.01	81.11	32.64	33019
2008	318	8.49	6.76	8.01	0.36	118.89	39.94	32871
2008	319	8.96	7.04	8.43	0.00	100.00	22.35	32725
2008	320	11.09	3.83	9.09	0.00	294.44	92.11	32582
2008	321	8.18	-0.46	5.80	0.32	44.44	87.26	32441
2008	322	9.58	2.56	7.65	0.00	472.22	186.94	32304
2008	323	6.45	-3.59	3.69	0.00	281.11	221.32	32170
2008	324	7.69	-3.63	4.58	0.00	288.89	145.06	32039
2008	325	12.53	0.51	9.22	0.00	535.56	143.99	31911
2008	326	7.51	3.08	6.29	0.25	151.11	44.40	31786
2008	327	5.18	-2.01	3.20	0.00	278.89	145.02	31665
2008	328	4.74	-3.76	2.40	0.00	365.56	181.42	31547
2008	329	4.85	-3.74	2.49	0.05	325.56	41.21	31433
2008	330	2.61	-0.78	1.68	0.00	88.89	51.96	31322
2008	331	4.64	-2.80	2.59	0.00	262.22	154.67	31215
2008	332	6.32	-2.10	4.00	0.00	346.67	186.96	31112
2008	333	3.12	-5.10	0.86	0.54	197.78	169.23	31012
2008	334	2.22	-0.23	1.55	0.00	45.56	42.11	30917
2008	335	8.35	-0.29	5.97	0.02	191.11	61.89	30825
2008	336	11.15	2.30	8.72	0.51	270.00	74.15	30738
2008	337	8.49	-0.05	6.14	0.42	193.33	101.07	30654
2008	338	5.44	2.76	4.70	0.03	61.11	42.02	30575
2008	339	4.41	-0.40	3.09	0.10	37.78	43.62	30500
2008	340	9.63	0.44	7.10	0.15	275.56	51.57	30430
2008	341	8.58	1.44	6.62	0.05	68.89	61.81	30363
2008	342	6.80	0.96	5.19	0.00	226.67	68.24	30301
2008	343	5.48	-0.86	3.74	0.00	172.22	46.28	30244
2008	344	5.40	-4.22	2.75	0.03	190.00	178.25	30191
2008	345	7.61	-1.52	5.10	0.00	364.44	87.63	30143
2008	346	5.47	3.07	4.81	0.20	125.56	53.06	30099
2008	347	4.49	1.67	3.71	0.41	81.11	10.81	30060
2008	348	4.73	1.66	3.89	0.15	62.50	15.35	30025
2008	349	4.80	2.42	4.15	0.02	60.00	32.30	29995
2008	350	4.51	2.31	3.90	0.03	96.25	35.99	29970
2008	351	4.65	3.26	4.27	0.41	50.00	19.56	29950
2008	352	5.20	4.05	4.88	1.99	43.75	77.17	29934
2008	353	5.22	0.70	3.98	1.29	88.75	22.20	29924
2008	354	4.32	2.00	3.68	0.28	103.75	28.07	29918
2008	355	4.69	-0.47	3.27	0.02	197.50	95.08	29916
2008	356	7.95	0.81	5.99	0.24	411.25	191.14	29920
2008	357	8.91	-0.18	6.41	0.00	187.50	120.01	29928
2008	358	8.88	-0.11	6.41	0.00	385.00	160.25	29941
2008	359	5.94	0.77	4.52	0.05	212.50	56.06	29959
2008	360	3.93	-1.69	2.38	0.04	90.00	45.09	29982
2008	361	-0.01	-4.06	-1.12	0.00	153.75	80.31	30009
2008	362	-0.63	-2.18	-1.06	0.00	100.00	50.53	30042
2008	363	-1.01	-5.90	-2.35	0.00	118.75	143.73	30078
2008	364	-2.53	-8.21	-4.09	0.00	113.75	67.21	30120
2008	365	-4.51	-9.12	-5.78	0.00	67.50	32.09	30166
2009	1	-3.86	-5.49	-4.31	0.00	72.50	36.85	30217
2009	2	-1.99	-4.24	-2.61	0.00	112.50	45.58	30272
2009	3	-0.91	-7.13	-2.62	0.00	180.00	203.63	30331
2009	4	-0.49	-11.33	-3.47	0.00	155.00	205.40	30396
2009	5	-1.81	-8.62	-3.68	0.00	102.50	111.48	30464
2009	6	-2.54	-9.06	-4.33	0.00	90.00	69.99	30537
2009	7	-3.64	-6.13	-4.32	0.00	100.00	43.77	30614
2009	8	-0.51	-8.99	-2.84	0.00	191.25	184.49	30695
2009	9	-1.11	-11.95	-4.09	0.00	167.50	226.71	30781
2009	10	-5.75	-13.36	-7.84	0.00	40.00	72.76	30870
2009	11	-7.02	-9.42	-7.68	0.00	40.00	40.07	30964
2009	12	-6.60	-7.62	-6.88	0.00	40.00	20.58	31061
2009	13	-6.38	-7.45	-6.67	0.12	40.00	31.25	31162
2009	14	-3.18	-7.33	-4.32	0.71	40.00	25.74	31268
2009	15	1.05	-3.37	-0.17	0.05	53.33	88.56	31376
2009	16	3.43	-5.33	1.02	0.00	75.56	175.90	31489
2009	17	2.54	-4.93	0.49	0.00	133.33	213.48	31605
2009	18	2.10	-5.57	-0.01	0.00	40.00	74.21	31724
2009	19	7.95	-2.70	5.02	0.00	183.33	186.49	31847
2009	20	13.25	3.27	10.51	0.00	476.00	166.97	31974
2009	21	8.69	1.93	6.83	2.50	92.00	39.63	32103
2009	22	5.51	0.38	4.10	0.00	129.00	163.76	32236
2009	23	3.21	-0.19	2.27	1.45	89.00	80.57	32372
2009	24	3.66	-0.51	2.51	0.00	53.00	144.23	32510
2009	25	4.85	-0.41	3.40	0.00	225.00	101.51	32652
2009	26	5.52	-1.53	3.58	0.37	207.00	123.64	32797
2009	27	2.24	-0.48	1.49	3.67	40.00	29.04	32944
2009	28	1.45	0.24	1.12	0.49	88.00	62.04	33094
2009	29	1.48	-0.19	1.02	0.05	183.00	119.63	33247
2009	30	0.84	-0.63	0.44	0.00	194.00	140.17	33402
2009	31	1.01	-1.17	0.41	0.07	164.00	134.52	33559
2009	32	-0.13	-2.77	-0.86	0.16	67.00	77.94	33719
2009	33	1.58	-1.09	0.85	1.00	61.00	67.23	33882
2009	34	2.13	0.22	1.60	0.48	38.00	62.03	34046
2009	35	3.75	0.44	2.84	0.06	39.00	91.59	34213
2009	36	7.96	-1.16	5.45	0.00	81.00	205.86	34382
2009	37	13.77	-0.11	9.95	0.00	427.00	225.47	34552
2009	38	12.29	2.96	9.72	0.48	410.00	150.35	34725
2009	39	9.00	2.77	7.29	1.51	79.00	37.65	34900
2009	40	5.89	0.01	4.27	0.00	408.00	235.92	35076
2009	41	8.75	-2.35	5.70	0.11	350.00	120.23	35254
2009	42	8.11	0.42	6.00	0.00	308.00	185.37	35434
2009	43	4.62	-2.46	2.67	0.00	248.00	197.97	35615
2009	44	2.54	-2.97	1.02	0.00	373.00	234.50	35798
2009	45	3.17	-1.83	1.79	0.00	391.00	200.35	35983
2009	46	1.68	-2.82	0.44	0.00	311.00	233.67	36169
2009	47	3.71	-4.60	1.42	0.00	342.00	201.49	36356
2009	48	3.63	-3.15	1.77	0.06	233.00	77.35	36544
2009	49	0.80	-5.61	-0.96	0.00	255.00	222.77	36734
2009	50	0.62	-4.58	-0.81	0.00	285.00	290.21	36925
2009	51	4.10	-6.24	1.26	0.01	340.00	215.11	37117
2009	52	3.64	-1.91	2.11	0.24	147.00	111.77	37310
2009	53	0.26	-3.28	-0.71	0.26	135.00	124.74	37505
2009	54	5.11	-1.81	3.21	0.02	106.36	137.24	37700
2009	55	4.27	-0.89	2.85	0.27	127.27	159.82	37896
2009	56	5.34	-0.96	3.61	0.00	290.00	225.89	38093
2009	57	8.59	-1.60	5.79	0.00	364.55	202.92	38291
2009	58	9.90	-0.79	6.96	0.02	312.73	166.80	38490
2009	59	13.90	1.65	10.53	0.00	527.27	279.24	38689
2009	60	12.58	0.74	9.32	0.00	338.18	290.46	38890
2009	61	6.97	2.41	5.72	0.24	110.00	75.45	39091
2009	62	8.46	3.84	7.19	0.04	111.67	97.73	39292
2009	63	9.72	4.75	8.35	0.08	140.83	107.40	39495
2009	64	8.65	5.97	7.91	1.43	120.00	37.55	39697
2009	65	8.06	5.25	7.29	0.43	93.33	71.89	39901
2009	66	8.20	2.78	6.71	0.00	395.00	39.62	40105
2009	67	11.75	2.62	9.24	0.00	595.83	335.72	40309
2009	68	8.94	2.04	7.04	0.01	457.50	114.06	40514
2009	69	11.28	-0.84	7.95	0.00	665.83	323.99	40719
2009	70	10.87	2.95	8.69	0.02	455.83	163.02	40924
2009	71	9.79	-0.28	7.02	0.03	496.67	303.65	41130
2009	72	12.22	2.26	9.48	0.04	533.33	263.19	41336
2009	73	12.39	3.05	9.82	0.00	439.17	269.53	41543
2009	74	13.26	1.08	9.91	0.01	350.83	168.39	41749
2009	75	12.46	4.48	10.27	0.00	520.00	201.53	41956
2009	76	9.54	1.05	7.21	0.00	422.50	210.99	42163
2009	77	10.01	1.39	7.64	0.28	679.17	365.69	42370
2009	78	5.34	-0.21	3.81	0.42	63.33	151.83	42578
2009	79	4.92	-1.38	3.19	0.04	260.83	262.38	42785
2009	80	5.98	-0.42	4.22	0.00	334.17	358.97	42992
2009	81	12.16	-3.75	7.78	0.00	619.17	398.76	43200
2009	82	14.73	1.80	11.17	0.00	821.67	256.73	43407
2009	83	10.19	3.40	8.32	0.00	476.67	165.39	43615
2009	84	6.88	-2.22	4.38	0.00	486.67	322.41	43822
2009	85	10.87	-0.98	7.61	0.00	428.33	295.04	44029
2009	86	14.78	0.98	10.98	0.00	660.00	271.17	44236
2009	87	16.77	4.15	13.30	0.00	768.33	330.76	44443
2009	88	13.25	8.16	11.85	2.36	310.83	77.02	44650
2009	89	9.82	4.73	8.42	0.00	296.67	270.03	44857
2009	90	10.68	4.34	8.94	0.17	321.67	171.50	45063
2009	91	13.63	7.33	11.90	0.00	368.05	170.75	45270
2009	92	18.80	9.25	16.17	0.00	1020.00	360.80	45475
2009	93	19.13	5.97	15.51	0.00	627.69	364.61	45681
2009	94	21.68	5.93	17.35	0.00	1003.08	430.84	45886
2009	95	21.89	6.44	17.64	0.00	1028.46	404.29	46091
2009	96	22.26	6.94	18.05	0.00	1032.31	360.53	46295
2009	97	23.21	5.48	18.33	0.00	1343.57	424.47	46499
2009	98	23.86	6.73	19.15	0.00	1487.86	442.12	46702
2009	99	23.64	6.52	18.93	0.00	1350.71	413.15	46905
2009	100	23.74	5.98	18.86	0.00	1555.71	426.18	47107
2009	101	23.93	6.10	19.03	0.00	1595.00	434.70	47309
2009	102	23.45	6.37	18.75	0.00	1571.43	441.50	47510
2009	103	20.12	6.26	16.31	0.00	984.29	438.57	47710
2009	104	20.54	4.79	16.21	0.00	927.86	442.68	47910
2009	105	22.40	4.03	17.35	0.00	1260.71	451.09	48108
2009	106	23.10	5.84	18.35	0.00	1375.71	385.90	48306
2009	107	19.48	9.27	16.67	0.14	960.00	329.86	48504
2009	108	20.85	4.05	16.23	0.00	929.29	417.59	48700
2009	109	18.89	5.18	15.12	0.11	749.29	245.89	48895
2009	110	20.90	10.49	18.04	0.00	752.14	354.20	49089
2009	111	20.32	9.65	17.39	0.00	1056.43	366.54	49282
2009	112	20.61	6.30	16.67	0.13	1229.29	486.96	49475
2009	113	14.71	7.40	12.70	0.34	420.71	103.41	49666
2009	114	18.90	5.78	15.29	0.00	862.14	447.18	49855
2009	115	20.62	3.53	15.92	0.00	1021.60	483.57	50044
2009	116	19.51	6.62	15.97	0.00	837.70	382.03	50231
2009	117	19.83	9.12	16.88	0.00	765.79	341.95	50417
2009	118	19.43	9.85	16.80	0.28	739.29	261.88	50601
2009	119	18.28	9.33	15.82	0.75	347.14	250.39	50784
2009	120	19.44	8.60	16.46	0.29	597.14	399.44	50966
2009	121	22.23	9.86	18.83	0.00	1173.57	431.55	51145
2009	122	17.22	8.33	14.78	0.02	961.43	248.01	51324
2009	123	20.43	8.61	17.18	0.00	1014.29	395.38	51500
2009	124	20.95	5.89	16.81	0.14	755.00	327.11	51674
2009	125	16.80	7.93	14.36	0.00	900.71	438.08	51847
2009	126	18.55	8.03	15.66	0.01	856.67	259.98	52018
2009	127	21.05	11.29	18.37	0.00	1012.67	413.29	52187
2009	128	24.85	7.50	20.08	0.00	1294.67	448.49	52353
2009	129	24.46	10.04	20.49	0.00	1243.33	459.47	52518
2009	130	26.35	10.78	22.07	0.00	1311.33	444.44	52680
2009	131	27.27	11.02	22.80	1.27	1350.00	429.34	52840
2009	132	22.19	11.64	19.29	1.11	369.33	360.34	52998
2009	133	14.22	10.03	13.07	0.29	252.67	149.17	53153
2009	134	14.62	10.19	13.40	0.01	129.33	88.76	53306
2009	135	19.60	9.22	16.75	0.00	393.33	278.19	53456
2009	136	22.62	11.22	19.49	0.34	702.67	360.15	53603
2009	137	24.84	9.73	20.68	0.00	886.67	466.32	53748
2009	138	26.87	12.64	22.96	0.05	809.33	393.64	53889
2009	139	24.08	14.13	21.34	0.02	830.00	475.64	54028
2009	140	24.69	13.91	21.73	0.00	1197.33	521.85	54164
2009	141	26.69	10.21	22.16	0.00	1440.00	490.32	54297
2009	142	26.91	13.49	23.22	0.82	1300.19	373.90	54426
2009	143	22.56	11.69	19.57	0.02	902.34	382.02	54552
2009	144	23.38	14.75	21.01	0.11	809.71	352.08	54675
2009	145	27.99	14.60	24.31	0.01	1240.63	445.58	54795
2009	146	27.76	16.37	24.63	0.68	1126.87	403.08	54911
2009	147	23.55	14.49	21.06	0.66	313.75	110.94	55023
2009	148	20.77	9.95	17.79	0.19	1031.88	386.58	55132
2009	149	17.53	7.61	14.80	0.15	707.50	377.62	55237
2009	150	11.35	6.41	9.99	0.42	201.87	151.72	55339
2009	151	18.59	3.94	14.56	0.04	655.62	349.57	55436
2009	152	18.43	9.64	16.01	0.00	520.63	269.62	55530
2009	153	19.53	6.82	16.03	0.00	676.25	369.76	55619
2009	154	23.88	10.18	20.11	0.00	1327.50	396.36	55705
2009	155	18.72	8.31	15.86	0.00	576.88	324.58	55786
2009	156	17.62	7.04	14.71	0.00	316.87	253.35	55863
2009	157	26.66	13.29	22.98	0.03	1080.00	340.98	55936
2009	158	23.50	12.78	20.55	0.72	380.00	188.17	56004
2009	159	24.45	9.01	20.20	0.00	862.50	458.90	56068
2009	160	27.06	12.88	23.16	0.00	1390.63	491.32	56128
2009	161	26.04	12.55	22.33	0.00	1014.38	358.17	56183
2009	162	25.16	10.43	21.11	0.62	691.25	321.31	56234
2009	163	23.14	8.94	19.23	0.01	1323.13	470.34	56280
2009	164	23.61	9.94	19.85	0.00	930.00	420.75	56321
2009	165	26.72	9.33	21.94	0.00	1367.50	498.02	56358
2009	166	27.89	16.18	24.67	0.00	1088.75	311.15	56390
2009	167	27.20	16.29	24.20	0.45	1107.50	259.99	56418
2009	168	23.77	13.13	20.84	0.00	1001.87	417.60	56440
2009	169	27.55	10.73	22.92	0.00	1238.75	487.67	56458
2009	170	30.81	14.40	26.30	0.00	1653.75	496.23	56472
2009	171	23.82	12.05	20.58	1.14	270.63	59.29	56480
2009	172	20.47	9.27	17.39	0.00	922.50	479.98	56484
2009	173	17.19	10.98	15.48	2.37	313.12	73.60	56482
2009	174	15.33	11.75	14.35	2.31	133.12	51.08	56476
2009	175	19.17	13.80	17.69	0.61	185.00	192.73	56466
2009	176	24.38	12.93	21.23	0.00	775.63	448.51	56450
2009	177	24.23	12.68	21.05	2.90	433.75	264.95	56430
2009	178	24.82	13.38	21.67	0.36	683.13	354.45	56405
2009	179	21.89	16.47	20.40	0.71	365.63	167.53	56375
2009	180	25.03	15.04	22.28	0.58	503.13	300.00	56341
2009	181	27.52	14.84	24.03	0.00	1034.38	433.95	56301
2009	182	27.62	17.27	24.77	0.92	751.25	352.55	56258
2009	183	27.94	16.09	24.68	0.56	876.25	393.21	56209
2009	184	27.88	15.55	24.49	0.01	986.88	423.58	56156
2009	185	27.58	17.33	24.76	0.21	1005.00	384.76	56099
2009	186	26.92	15.77	23.85	0.42	893.13	381.30	56037
2009	187	28.10	15.14	24.54	0.45	788.13	341.28	55971
2009	188	26.18	14.11	22.86	0.40	746.25	363.36	55900
2009	189	20.97	14.76	19.26	0.52	251.88	187.40	55825
2009	190	22.91	11.61	19.80	0.19	659.38	327.57	55746
2009	191	18.10	13.76	16.91	0.50	244.38	128.98	55663
2009	192	22.44	9.04	18.76	0.00	804.38	368.21	55575
2009	193	25.01	10.42	21.00	0.00	1131.88	480.95	55484
2009	194	28.53	14.12	24.57	0.00	1276.25	426.50	55388
2009	195	30.42	15.95	26.44	0.00	1229.37	470.80	55289
2009	196	31.35	17.31	27.49	0.54	1128.13	414.24	55186
2009	197	29.77	17.52	26.40	0.00	1401.87	490.39	55079
2009	198	31.15	16.61	27.15	0.00	1463.13	495.92	54968
2009	199	27.33	13.85	23.62	1.08	405.63	159.23	54854
2009	200	23.89	10.26	20.14	0.00	1122.50	495.38	54736
2009	201	25.94	10.83	21.78	0.00	1090.63	430.72	54615
2009	202	28.96	13.11	24.60	0.00	1230.62	478.62	54490
2009	203	30.93	15.31	26.63	0.00	1445.00	486.82	54362
2009	204	33.14	17.30	28.78	0.00	1899.38	460.38	54231
2009	205	30.02	16.15	26.21	0.87	1508.75	479.60	54097
2009	206	25.84	15.06	22.88	0.00	829.38	300.04	53960
2009	207	24.59	9.66	20.48	0.00	1175.00	412.53	53819
2009	208	26.67	10.51	22.23	0.00	1265.63	492.03	53676
2009	209	26.76	12.79	22.92	0.00	1192.50	391.01	53530
2009	210	28.57	14.73	24.76	0.00	1470.00	516.79	53382
2009	211	31.14	13.84	26.38	0.00	1610.71	446.84	53230
2009	212	26.99	18.69	24.71	0.00	1735.71	384.72	53076
2009	213	29.67	14.09	25.39	0.00	1590.71	479.88	52920
2009	214	32.79	16.81	28.40	0.00	1975.71	485.67	52761
2009	215	28.78	15.74	25.19	1.63	1432.14	365.38	52600
2009	216	21.06	16.64	19.84	0.62	275.00	89.08	52437
2009	217	24.15	16.67	22.09	0.00	814.29	272.57	52271
2009	218	25.97	16.90	23.48	0.00	1022.86	414.34	52103
2009	219	26.77	16.20	23.86	0.00	1185.71	397.39	51934
2009	220	27.80	15.20	24.34	0.01	1199.29	396.61	51762
2009	221	23.29	17.28	21.64	0.00	1040.71	217.24	51588
2009	222	28.27	16.03	24.90	1.16	1348.57	413.94	51413
2009	223	26.07	16.06	23.32	0.01	815.00	327.35	51235
2009	224	27.16	14.21	23.60	0.00	1243.57	402.58	51057
2009	225	26.22	14.81	23.08	1.13	685.00	188.57	50876
2009	226	23.12	16.59	21.32	0.08	578.57	314.78	50694
2009	227	26.55	12.71	22.74	0.00	912.14	449.66	50510
2009	228	28.82	14.96	25.01	0.00	1219.29	470.73	50325
2009	229	31.18	16.09	27.03	0.00	1483.57	443.58	50138
2009	230	30.14	16.14	26.29	0.08	1455.00	420.81	49951
2009	231	27.41	15.72	24.20	0.00	1182.86	257.78	49761
2009	232	28.49	15.88	25.02	0.00	1191.43	419.82	49571
2009	233	29.81	15.21	25.79	0.00	1596.43	456.15	49380
2009	234	26.04	17.56	23.71	1.24	884.29	274.82	49187
2009	235	22.96	15.73	20.97	0.00	927.86	428.60	48993
2009	236	24.44	11.38	20.85	0.00	854.29	399.01	48798
2009	237	26.79	11.46	22.57	0.00	1384.07	454.29	48603
2009	238	29.22	12.17	24.53	0.00	1212.50	440.85	48406
2009	239	29.82	15.32	25.83	0.00	1261.43	439.97	48208
2009	240	30.97	15.60	26.74	0.41	1412.86	437.65	48010
2009	241	24.31	14.72	21.67	1.77	447.14	64.31	47811
2009	242	22.42	12.96	19.82	0.00	1147.14	456.04	47611
2009	243	24.34	7.81	19.79	0.00	1071.43	472.30	47410
2009	244	26.68	9.88	22.06	0.00	1141.43	451.32	47209
2009	245	27.35	11.96	23.12	0.00	972.86	348.41	47007
2009	246	29.48	14.77	25.43	0.33	1160.77	399.05	46805
2009	247	24.38	14.79	21.74	2.64	182.31	66.79	46601
2009	248	19.99	11.25	17.59	0.07	611.54	308.95	46398
2009	249	19.87	7.69	16.52	0.00	798.46	445.80	46194
2009	250	21.30	7.62	17.54	0.00	848.46	365.30	45989
2009	251	21.95	8.22	18.17	0.00	816.92	462.79	45784
2009	252	22.59	10.96	19.39	0.00	797.69	378.55	45579
2009	253	24.92	13.08	21.66	0.01	1060.77	417.12	45373
2009	254	21.51	14.72	19.64	0.37	573.85	155.49	45167
2009	255	22.32	15.26	20.38	0.00	700.77	421.79	44961
2009	256	22.01	12.38	19.36	0.14	933.08	416.04	44755
2009	257	19.26	12.59	17.43	0.08	340.83	161.78	44548
2009	258	22.37	12.96	19.78	0.02	434.17	266.98	44341
2009	259	25.15	12.79	21.75	0.11	860.83	322.59	44134
2009	260	22.45	16.50	20.81	0.01	563.33	267.35	43927
2009	261	21.75	15.75	20.10	0.00	495.00	162.68	43719
2009	262	22.66	13.85	20.24	0.00	593.33	307.54	43512
2009	263	24.36	12.44	21.08	0.00	1013.33	368.21	43304
2009	264	25.18	10.89	21.25	0.00	1027.50	361.77	43097
2009	265	25.57	10.63	21.46	0.00	1132.50	403.53	42890
2009	266	25.69	10.03	21.38	0.00	1164.17	388.31	42682
2009	267	25.19	10.28	21.09	0.00	1043.33	371.54	42475
2009	268	21.71	14.08	19.61	0.00	834.17	385.27	42268
2009	269	21.45	8.91	18.00	0.00	956.67	387.86	42060
2009	270	22.97	7.59	18.74	0.00	1024.17	378.81	41854
2009	271	24.41	9.05	20.19	0.00	1028.33	328.87	41647
2009	272	23.95	10.57	20.27	0.00	970.83	272.26	41440
2009	273	22.61	9.90	19.11	0.00	860.83	307.26	41234
2009	274	23.14	10.72	19.72	0.87	700.00	254.12	41028
2009	275	18.28	10.44	16.12	0.03	204.17	58.54	40822
2009	276	17.74	5.56	14.39	0.00	620.00	328.16	40617
2009	277	21.14	5.11	16.73	0.00	784.55	393.82	40412
2009	278	21.03	6.19	16.95	0.00	840.00	372.09	40208
2009	279	26.12	10.96	21.95	0.00	1111.82	363.83	40003
2009	280	26.02	14.00	22.71	0.00	1020.00	304.39	39800
2009	281	25.57	12.25	21.91	0.00	866.36	325.18	39597
2009	282	18.92	11.67	16.93	0.06	325.45	120.52	39394
2009	283	17.17	10.39	15.31	1.25	251.82	153.78	39192
2009	284	19.30	10.34	16.84	0.96	604.55	267.81	38991
2009	285	11.72	8.37	10.80	0.83	207.27	36.75	38790
2009	286	10.22	5.10	8.81	0.00	531.82	270.95	38590
2009	287	7.86	1.65	6.15	0.00	430.91	175.23	38391
2009	288	8.53	2.20	6.79	0.00	481.82	178.92	38193
2009	289	9.44	1.11	7.15	0.00	453.64	178.48	37995
2009	290	9.64	1.88	7.51	0.03	281.82	166.86	37799
2009	291	8.95	2.30	7.12	0.02	246.36	184.36	37603
2009	292	8.90	0.00	6.45	0.00	292.73	226.05	37408
2009	293	9.63	3.08	7.83	0.00	353.64	181.79	37214
2009	294	15.23	-1.48	10.63	0.00	454.55	277.34	37022
2009	295	19.41	8.41	16.39	0.11	684.55	184.97	36830
2009	296	16.03	9.32	14.18	0.62	247.27	142.88	36640
2009	297	11.39	8.87	10.70	0.05	246.36	42.75	36451
2009	298	16.65	4.97	13.44	0.00	400.00	259.77	36263
2009	299	14.61	7.42	12.63	0.01	190.00	78.85	36076
2009	300	17.01	6.98	14.25	0.00	579.09	261.81	35891
2009	301	15.91	3.26	12.43	0.00	593.00	237.67	35707
2009	302	12.46	3.78	10.07	0.21	262.00	143.04	35525
2009	303	9.56	2.47	7.61	0.00	311.00	268.36	35345
2009	304	8.93	-2.78	5.71	0.00	244.00	234.26	35166
2009	305	4.65	-1.53	2.95	0.00	37.00	123.09	34988
2009	306	5.70	-1.29	3.78	0.99	147.00	146.46	34813
2009	307	3.96	0.47	3.00	0.10	72.00	88.55	34639
2009	308	3.83	0.05	2.79	0.80	104.00	84.08	34468
2009	309	9.58	2.46	7.62	0.01	139.00	152.97	34298
2009	310	5.27	4.00	4.92	1.64	40.00	20.89	34130
2009	311	7.51	3.79	6.49	0.00	70.00	53.21	33964
2009	312	7.32	3.06	6.15	0.69	40.00	28.49	33801
2009	313	9.81	4.78	8.43	0.02	115.56	121.86	33640
2009	314	7.85	3.09	6.54	0.57	141.11	42.37	33481
2009	315	8.34	4.69	7.34	0.02	315.56	69.48	33325
2009	316	12.05	-0.03	8.73	0.00	419.44	240.00	33171
2009	317	12.99	0.19	9.47	0.00	381.11	220.93	33019
2009	318	15.11	1.79	11.45	0.00	345.56	198.49	32871
2009	319	15.68	4.23	12.53	0.00	292.22	156.28	32725
2009	320	14.46	5.29	11.94	0.00	260.00	167.35	32582
2009	321	16.84	3.92	13.29	0.00	363.33	227.41	32441
2009	322	12.79	5.23	10.71	0.05	277.78	58.75	32304
2009	323	16.10	1.77	12.16	0.00	368.89	221.29	32170
2009	324	14.76	0.94	10.96	0.00	418.89	217.74	32039
2009	325	7.14	2.35	5.82	0.01	40.00	51.45	31911
2009	326	5.49	2.25	4.60	0.01	34.44	53.97	31786
2009	327	8.89	3.08	7.29	0.12	38.89	69.73	31665
2009	328	13.58	3.18	10.72	0.00	212.22	150.85	31547
2009	329	14.65	2.68	11.36	0.00	373.33	202.16	31433
2009	330	10.39	2.75	8.29	0.00	194.44	91.35	31322
2009	331	12.59	2.33	9.77	0.00	321.11	111.20	31215
2009	332	9.41	2.94	7.63	0.38	72.22	52.23	31112
2009	333	11.34	0.83	8.45	0.00	306.67	79.90	31012
2009	334	14.31	7.60	12.46	0.52	452.22	110.11	30917
2009	335	14.75	5.35	12.17	0.88	126.67	65.29	30825
2009	336	6.45	0.56	4.83	0.00	47.78	125.60	30738
2009	337	4.73	0.22	3.49	0.00	57.78	88.36	30654
2009	338	4.57	1.74	3.79	0.01	67.78	20.75	30575
2009	339	6.18	-0.72	4.28	0.00	101.11	112.79	30500
2009	340	3.41	-1.54	2.05	0.00	46.67	81.13	30430
2009	341	5.13	-0.91	3.47	0.20	93.33	118.21	30363
2009	342	5.78	1.61	4.63	1.24	45.56	17.67	30301
2009	343	8.20	4.11	7.08	0.01	362.22	51.27	30244
2009	344	8.69	2.40	6.96	0.09	263.33	155.70	30191
2009	345	6.73	2.34	5.52	0.36	117.78	61.95	30143
2009	346	4.57	0.37	3.42	0.02	115.56	29.77	30099
2009	347	0.69	-2.32	-0.14	0.01	150.00	38.10	30060
2009	348	-2.14	-4.13	-2.69	0.31	73.75	39.65	30025
2009	349	-1.90	-4.62	-2.65	0.04	107.50	83.18	29995
2009	350	-1.93	-4.73	-2.70	0.01	127.50	63.40	29970
2009	351	-2.15	-7.28	-3.56	0.00	115.80	114.19	29950
2009	352	-3.33	-9.95	-5.15	0.07	102.50	93.09	29934
2009	353	-7.65	-12.67	-9.03	1.06	38.75	24.92	29924
2009	354	-7.84	-17.31	-10.44	0.00	50.00	146.02	29918
2009	355	-2.92	-17.53	-6.94	0.00	80.00	152.77	29916
2009	356	6.21	-4.13	3.37	0.00	207.50	94.86	29920
2009	357	13.79	3.47	10.95	0.14	338.75	92.65	29928
2009	358	12.49	2.31	9.69	0.00	311.25	99.85	29941
2009	359	16.75	6.40	13.90	1.77	541.25	101.09	29959
2009	360	8.63	0.40	6.37	0.02	505.00	161.15	29982
2009	361	3.53	-0.33	2.47	0.08	57.50	54.79	30009
2009	362	6.42	-2.40	3.99	0.00	181.25	174.64	30042
2009	363	2.86	-4.40	0.86	0.00	90.00	128.16	30078
2009	364	7.40	-0.60	5.20	0.00	128.75	108.17	30120
2009	365	7.10	-1.18	4.82	0.02	37.50	86.12	30166
2010	1	5.08	1.53	4.10	0.00	30.00	36.53	30217
2010	2	4.96	0.85	3.83	0.00	215.00	64.19	30272
2010	3	2.23	-3.74	0.59	0.00	303.75	142.58	30331
2010	4	0.60	-7.71	-1.69	0.02	168.75	203.03	30396
2010	5	-0.71	-3.14	-1.38	0.88	48.75	43.33	30464
2010	6	-0.69	-3.47	-1.45	0.11	35.00	86.13	30537
2010	7	-0.49	-3.81	-1.40	0.12	57.50	54.95	30614
2010	8	-0.18	-3.24	-1.02	1.68	30.00	31.84	30695
2010	9	0.66	-0.30	0.40	0.47	30.00	26.84	30781
2010	10	0.97	-0.04	0.69	0.03	30.00	51.28	30870
2010	11	0.49	-1.26	0.01	0.00	88.75	52.63	30964
2010	12	-0.36	-2.78	-1.03	0.00	128.89	129.42	31061
2010	13	-1.02	-3.68	-1.75	0.00	70.00	43.01	31162
2010	14	-0.66	-1.59	-0.92	0.00	80.00	34.14	31268
2010	15	0.54	-1.48	-0.02	0.00	131.11	82.16	31376
2010	16	2.23	-3.24	0.73	0.00	180.00	176.37	31489
2010	17	-1.11	-3.99	-1.90	0.32	30.00	56.27	31605
2010	18	2.46	-2.64	1.06	0.34	65.56	122.02	31724
2010	19	3.64	-0.74	2.44	0.06	58.89	131.02	31847
2010	20	2.79	-1.72	1.55	0.00	91.00	132.31	31974
2010	21	-0.41	-6.02	-1.95	0.50	44.00	71.55	32103
2010	22	-4.64	-6.42	-5.13	0.00	99.00	71.79	32236
2010	23	-4.04	-8.40	-5.24	0.00	85.00	93.11	32372
2010	24	-3.66	-8.10	-4.88	0.00	88.00	98.53	32510
2010	25	-2.91	-6.52	-3.90	0.00	124.00	164.53	32652
2010	26	-4.82	-8.80	-5.91	0.00	114.00	150.41	32797
2010	27	-3.97	-13.51	-6.59	0.00	145.00	294.23	32944
2010	28	-3.57	-12.55	-6.04	0.00	113.00	125.56	33094
2010	29	1.10	-9.75	-1.88	0.00	173.00	113.93	33247
2010	30	2.22	-2.39	0.95	0.17	144.00	76.71	33402
2010	31	0.68	-2.70	-0.25	0.00	219.00	105.54	33559
2010	32	3.15	-9.48	-0.32	0.00	310.00	255.78	33719
2010	33	3.81	-8.15	0.52	0.00	284.00	238.35	33882
2010	34	5.67	-6.20	2.41	0.00	371.00	110.04	34046
2010	35	5.94	-1.35	3.94	0.00	200.00	237.85	34213
2010	36	4.14	-2.29	2.37	0.03	112.00	117.62	34382
2010	37	1.93	-1.58	0.96	0.68	35.00	71.96	34552
2010	38	-0.36	-6.11	-1.94	0.00	126.00	139.05	34725
2010	39	-2.74	-8.04	-4.20	0.00	122.00	135.19	34900
2010	40	-3.09	-7.08	-4.19	0.00	109.00	86.84	35076
2010	41	-0.04	-4.77	-1.34	0.92	96.00	111.61	35254
2010	42	-0.66	-3.23	-1.37	0.65	36.00	95.17	35434
2010	43	-0.42	-3.77	-1.34	0.00	124.00	119.19	35615
2010	44	3.06	-3.70	1.20	0.00	276.00	253.55	35798
2010	45	1.66	-7.16	-0.77	0.00	214.00	193.04	35983
2010	46	0.75	-3.64	-0.46	0.00	134.00	117.51	36169
2010	47	2.37	-8.85	-0.72	0.00	134.00	261.18	36356
2010	48	4.96	-1.81	3.10	0.00	142.00	212.39	36544
2010	49	8.45	-2.03	5.57	0.00	178.00	195.49	36734
2010	50	7.91	-3.04	4.90	0.72	127.00	147.60	36925
2010	51	5.56	1.52	4.45	0.01	214.00	107.88	37117
2010	52	8.50	-2.25	5.54	0.00	479.00	283.51	37310
2010	53	10.12	-1.20	7.01	0.00	359.00	240.55	37505
2010	54	12.96	1.33	9.76	0.00	442.73	219.43	37700
2010	55	13.03	1.00	9.72	0.00	415.45	234.87	37896
2010	56	14.02	0.02	10.17	0.00	390.00	285.08	38093
2010	57	11.42	3.53	9.25	1.11	289.09	94.84	38291
2010	58	12.77	2.89	10.05	0.00	796.36	341.70	38490
2010	59	14.29	1.78	10.85	0.01	703.64	211.07	38689
2010	60	15.32	5.27	12.56	0.08	424.55	274.29	38890
2010	61	9.69	2.77	7.79	0.01	311.55	168.84	39091
2010	62	8.38	0.49	6.21	0.00	315.59	117.19	39292
2010	63	4.12	1.15	3.30	0.00	175.83	76.89	39495
2010	64	3.07	-1.44	1.83	0.00	341.67	333.54	39697
2010	65	2.75	-6.88	0.10	0.01	278.33	286.58	39901
2010	66	0.33	-4.19	-0.91	0.00	201.67	166.18	40105
2010	67	0.79	-7.61	-1.52	0.00	252.50	345.38	40309
2010	68	2.35	-3.54	0.73	0.00	286.67	218.11	40514
2010	69	0.88	-3.81	-0.41	0.91	165.83	114.52	40719
2010	70	0.66	-2.15	-0.11	0.02	61.67	113.36	40924
2010	71	5.90	-3.42	3.34	0.00	248.33	259.96	41130
2010	72	8.79	-1.14	6.06	0.00	473.33	215.42	41336
2010	73	10.20	-0.34	7.30	0.01	611.67	267.54	41543
2010	74	5.89	-0.95	4.01	0.03	333.33	231.09	41749
2010	75	9.87	-0.96	6.89	0.10	290.00	209.14	41956
2010	76	11.11	0.83	8.28	0.01	352.50	315.15	42163
2010	77	15.60	-1.17	10.99	0.00	630.00	355.17	42370
2010	78	17.19	2.23	13.08	0.00	721.67	279.52	42578
2010	79	18.41	3.21	14.23	0.00	776.67	322.39	42785
2010	80	19.72	6.63	16.12	0.01	790.83	302.88	42992
2010	81	13.66	7.76	12.04	0.42	206.67	112.60	43200
2010	82	16.58	2.96	12.83	0.00	330.83	330.67	43407
2010	83	16.79	3.55	13.15	0.00	485.00	277.13	43615
2010	84	17.55	8.75	15.13	0.00	503.33	299.41	43822
2010	85	19.22	8.80	16.35	0.23	771.67	318.32	44029
2010	86	15.83	6.21	13.18	0.05	614.17	284.13	44236
2010	87	16.34	2.30	12.48	0.00	785.00	342.44	44443
2010	88	19.66	3.95	15.34	0.00	1040.00	377.55	44650
2010	89	18.78	9.69	16.28	0.20	941.67	283.05	44857
2010	90	13.92	6.35	11.84	0.59	205.00	101.47	45063
2010	91	16.11	2.14	12.27	0.57	717.50	428.59	45270
2010	92	11.40	3.11	9.12	0.00	388.33	258.54	45475
2010	93	15.73	-0.65	11.23	0.00	644.62	438.55	45681
2010	94	14.04	7.54	12.25	1.22	686.92	151.04	45886
2010	95	12.15	6.12	10.49	0.60	256.92	77.83	46091
2010	96	13.32	4.85	10.99	0.00	686.15	450.53	46295
2010	97	15.09	0.22	11.00	0.00	582.14	461.63	46499
2010	98	17.44	0.87	12.88	0.00	677.14	356.06	46702
2010	99	19.04	3.15	14.67	0.00	814.29	410.45	46905
2010	100	14.41	6.67	12.28	0.08	519.29	250.33	47107
2010	101	9.91	2.53	7.88	0.58	261.43	228.97	47309
2010	102	6.13	3.66	5.45	0.89	88.57	83.17	47510
2010	103	10.33	4.93	8.85	0.46	105.00	86.44	47710
2010	104	13.24	6.71	11.44	1.10	240.00	241.23	47910
2010	105	14.52	6.02	12.18	0.07	350.00	249.61	48108
2010	106	16.01	6.77	13.47	0.00	474.29	367.82	48306
2010	107	14.53	4.62	11.80	0.00	639.29	506.92	48504
2010	108	15.59	0.95	11.56	0.01	455.71	258.35	48700
2010	109	18.81	4.39	14.84	0.00	691.43	364.40	48895
2010	110	21.32	4.86	16.79	0.02	1005.00	364.55	49089
2010	111	20.64	7.72	17.09	0.16	991.43	380.77	49282
2010	112	12.37	5.33	10.43	0.00	437.14	132.84	49475
2010	113	14.73	5.66	12.24	0.00	417.86	203.42	49666
2010	114	20.17	6.31	16.36	0.00	904.40	425.63	49855
2010	115	22.13	6.87	17.93	0.00	1036.43	406.49	50044
2010	116	23.52	6.54	18.85	0.05	1141.43	453.31	50231
2010	117	20.00	11.29	17.60	0.00	840.00	343.20	50417
2010	118	19.13	8.03	16.08	0.00	905.00	483.33	50601
2010	119	21.73	3.84	16.81	0.00	1151.43	493.76	50784
2010	120	26.05	6.99	20.81	0.00	1447.86	461.64	50966
2010	121	23.31	10.52	19.79	0.00	1098.57	385.92	51145
2010	122	21.43	11.36	18.66	0.00	785.71	287.95	51324
2010	123	21.38	12.34	18.89	0.04	719.29	248.52	51500
2010	124	20.62	10.09	17.72	0.12	443.57	254.53	51674
2010	125	15.38	11.40	14.29	0.59	76.43	84.28	51847
2010	126	19.69	11.06	17.32	0.00	651.33	477.63	52018
2010	127	20.22	5.70	16.23	0.00	832.00	452.33	52187
2010	128	17.78	5.51	14.41	0.00	528.67	294.11	52353
2010	129	20.41	9.41	17.39	0.00	670.00	308.14	52518
2010	130	21.34	9.70	18.14	0.00	837.33	397.46	52680
2010	131	21.97	7.31	17.94	0.00	759.33	394.03	52840
2010	132	19.17	11.40	17.03	0.04	462.67	282.84	52998
2010	133	15.83	8.75	13.88	0.80	186.00	148.12	53153
2010	134	17.85	10.10	15.72	0.39	170.00	212.36	53306
2010	135	12.64	8.29	11.44	1.51	212.67	148.99	53456
2010	136	10.32	6.59	9.29	1.15	313.33	58.66	53603
2010	137	14.73	8.63	13.05	0.01	619.33	151.41	53748
2010	138	16.05	8.24	13.90	0.00	630.67	244.97	53889
2010	139	16.76	4.87	13.49	0.00	690.67	395.22	54028
2010	140	14.84	8.13	12.99	0.11	398.67	191.66	54164
2010	141	18.88	10.87	16.68	0.06	434.67	192.23	54297
2010	142	21.91	12.78	19.40	0.00	714.00	407.30	54426
2010	143	22.07	11.05	19.04	0.00	931.25	403.09	54552
2010	144	25.48	10.46	21.35	0.00	1241.25	424.54	54675
2010	145	27.29	11.68	23.00	0.12	1355.00	435.62	54795
2010	146	25.88	13.33	22.43	0.00	1041.88	441.32	54911
2010	147	25.61	11.94	21.85	0.05	935.00	427.63	55023
2010	148	23.96	11.52	20.54	0.18	920.00	445.29	55132
2010	149	22.47	13.83	20.09	0.01	718.13	380.19	55237
2010	150	22.88	13.82	20.39	0.10	495.63	269.24	55339
2010	151	15.50	10.67	14.17	0.57	395.00	116.43	55436
2010	152	15.26	9.45	13.66	1.43	483.75	134.50	55530
2010	153	13.13	10.01	12.27	1.38	91.88	91.55	55619
2010	154	16.91	10.86	15.25	1.32	243.75	165.96	55705
2010	155	19.87	12.71	17.90	0.01	503.12	174.38	55786
2010	156	23.61	10.23	19.93	0.00	1096.25	513.64	55863
2010	157	25.23	9.95	21.03	0.00	975.00	514.03	55936
2010	158	26.50	12.11	22.54	0.00	938.75	467.22	56004
2010	159	28.34	14.91	24.65	0.00	1119.37	459.70	56068
2010	160	29.16	15.35	25.36	0.00	1453.12	493.52	56128
2010	161	29.59	17.38	26.23	0.00	1746.88	435.44	56183
2010	162	32.07	19.77	28.69	0.00	2296.88	470.14	56234
2010	163	31.97	16.86	27.81	0.00	2157.50	480.71	56280
2010	164	28.24	19.10	25.73	0.00	1207.50	466.40	56321
2010	165	26.33	16.40	23.60	0.27	514.38	363.21	56358
2010	166	25.92	12.40	22.20	1.43	1031.25	470.51	56390
2010	167	21.86	14.89	19.94	1.70	116.88	60.80	56418
2010	168	21.21	14.87	19.47	0.15	269.38	178.97	56440
2010	169	25.50	15.25	22.68	0.49	639.38	354.12	56458
2010	170	20.44	13.95	18.66	0.05	420.63	261.57	56472
2010	171	17.09	12.62	15.86	1.79	300.00	111.03	56480
2010	172	14.66	11.15	13.69	0.52	290.00	92.43	56484
2010	173	18.76	13.67	17.36	0.00	790.62	287.25	56482
2010	174	21.53	13.80	19.40	0.00	1066.88	509.88	56476
2010	175	22.87	10.26	19.40	0.00	1135.63	426.05	56466
2010	176	23.04	11.84	19.96	0.21	641.88	258.82	56450
2010	177	21.69	12.74	19.23	0.00	685.00	144.23	56430
2010	178	24.94	13.90	21.90	0.00	1236.87	498.88	56405
2010	179	26.12	12.95	22.50	0.00	1164.38	494.91	56375
2010	180	27.93	15.22	24.43	0.00	1436.25	489.80	56341
2010	181	29.05	14.59	25.07	0.00	1648.75	503.54	56301
2010	182	29.63	15.06	25.62	0.00	1645.62	438.72	56258
2010	183	30.20	15.31	26.11	0.00	1461.25	439.02	56209
2010	184	31.16	15.87	26.96	0.03	1605.00	460.52	56156
2010	185	28.01	15.39	24.54	0.00	1473.13	446.32	56099
2010	186	27.81	16.01	24.56	0.00	1273.75	320.39	56037
2010	187	27.63	16.95	24.69	0.06	1116.88	277.58	55971
2010	188	23.40	14.38	20.92	0.00	1281.88	368.81	55900
2010	189	25.94	10.29	21.64	0.00	1388.13	491.18	55825
2010	190	28.95	11.05	24.03	0.00	1807.50	486.83	55746
2010	191	30.84	12.68	25.85	0.00	1993.75	496.86	55663
2010	192	31.94	14.57	27.16	0.00	1930.62	477.30	55575
2010	193	32.69	16.26	28.17	0.00	1901.25	466.62	55484
2010	194	32.10	17.45	28.07	0.52	1213.12	346.51	55388
2010	195	33.56	17.31	29.09	0.00	1858.12	479.40	55289
2010	196	33.33	19.37	29.49	2.36	1628.13	433.41	55186
2010	197	33.05	19.98	29.46	0.00	1777.43	428.47	55079
2010	198	33.77	20.38	30.09	1.81	1871.14	437.66	54968
2010	199	28.49	17.24	25.40	0.01	1275.87	368.13	54854
2010	200	24.39	15.57	21.96	0.00	869.07	450.95	54736
2010	201	28.28	14.73	24.55	0.00	1408.41	370.91	54615
2010	202	31.09	17.12	27.25	0.00	1665.15	444.60	54490
2010	203	33.29	17.36	28.91	0.00	2002.60	464.56	54362
2010	204	30.80	18.08	27.30	0.33	1554.72	380.29	54231
2010	205	25.29	16.70	22.93	2.21	895.84	198.20	54097
2010	206	18.23	13.86	17.03	0.21	356.90	132.40	53960
2010	207	19.26	12.74	17.47	0.05	523.09	234.62	53819
2010	208	24.21	13.68	21.31	0.01	969.41	345.75	53676
2010	209	26.38	16.05	23.54	0.01	1078.12	408.23	53530
2010	210	26.25	15.51	23.30	2.04	1097.87	296.76	53382
2010	211	19.11	13.49	17.56	0.38	461.48	115.37	53230
2010	212	23.44	14.68	21.03	0.00	820.98	339.25	53076
2010	213	27.75	12.63	23.59	0.00	1449.37	493.62	52920
2010	214	29.43	14.08	25.21	0.00	1600.24	478.01	52761
2010	215	25.69	17.11	23.33	0.56	914.69	258.32	52600
2010	216	24.09	14.96	21.58	0.00	875.69	437.30	52437
2010	217	25.14	11.99	21.52	2.17	1166.11	380.68	52271
2010	218	22.24	15.84	20.48	2.53	608.71	198.52	52103
2010	219	20.19	14.33	18.58	0.80	506.91	139.30	51934
2010	220	26.08	14.73	22.96	0.03	1126.27	429.76	51762
2010	221	22.93	15.53	20.90	0.46	706.40	198.80	51588
2010	222	26.51	12.52	22.66	0.00	1300.88	348.32	51413
2010	223	27.74	14.41	24.07	0.00	1355.36	446.81	51235
2010	224	27.83	14.16	24.07	0.00	1381.08	415.53	51057
2010	225	28.26	16.11	24.92	3.38	1321.25	404.86	50876
2010	226	26.94	16.04	23.94	0.46	1150.54	368.78	50694
2010	227	26.84	19.36	24.78	0.03	879.83	341.61	50510
2010	228	24.95	14.50	22.08	0.32	1004.77	294.24	50325
2010	229	24.53	13.43	21.48	0.39	1020.15	400.37	50138
2010	230	23.16	14.14	20.68	0.78	825.01	285.75	49951
2010	231	25.64	15.90	22.96	0.03	996.02	340.44	49761
2010	232	24.80	16.27	22.45	0.00	867.98	315.36	49571
2010	233	26.96	16.84	24.18	0.00	1097.48	422.04	49380
2010	234	27.50	14.91	24.04	0.00	1294.98	448.07	49187
2010	235	28.07	14.00	24.20	0.00	1421.20	459.00	48993
2010	236	23.87	15.95	21.69	0.22	782.03	150.13	48798
2010	237	20.20	16.41	19.16	0.00	352.55	180.65	48603
2010	238	26.92	12.93	23.07	0.00	1330.55	430.94	48406
2010	239	30.26	16.50	26.48	2.52	1580.00	342.89	48208
2010	240	20.56	15.05	19.04	0.51	492.52	102.88	48010
2010	241	20.00	8.53	16.85	0.07	806.29	358.93	47811
2010	242	15.66	9.52	13.97	0.79	406.37	94.11	47611
2010	243	13.87	6.53	11.85	0.96	418.59	185.40	47410
2010	244	19.15	11.75	17.11	0.00	572.00	392.35	47209
2010	245	20.15	8.11	16.84	0.05	836.72	328.54	47007
2010	246	18.64	11.29	16.62	0.04	552.88	236.83	46805
2010	247	18.21	11.53	16.37	0.60	502.11	151.64	46601
2010	248	17.48	8.60	15.04	0.01	591.74	383.92	46398
2010	249	15.71	8.92	13.84	0.04	440.20	248.71	46194
2010	250	12.52	6.42	10.84	0.09	336.12	85.90	45989
2010	251	15.59	11.93	14.58	0.60	263.90	76.40	45784
2010	252	20.04	14.38	18.48	0.05	488.93	231.98	45579
2010	253	18.23	12.35	16.61	0.03	455.22	162.49	45373
2010	254	18.60	14.78	17.55	0.12	324.77	185.43	45167
2010	255	20.32	11.92	18.01	0.00	669.79	222.21	44961
2010	256	21.68	9.81	18.42	0.00	905.69	342.95	44755
2010	257	21.29	12.88	18.98	0.00	707.93	433.52	44548
2010	258	22.80	12.67	20.01	0.00	874.27	320.79	44341
2010	259	18.91	14.03	17.57	1.55	406.69	90.38	44134
2010	260	15.66	13.70	15.12	3.57	150.85	74.82	43927
2010	261	14.91	10.87	13.80	2.27	276.29	142.40	43719
2010	262	16.81	10.06	14.95	0.02	467.08	232.97	43512
2010	263	18.72	4.96	14.94	0.00	827.88	406.80	43304
2010	264	20.49	5.86	16.47	0.00	946.52	417.01	43097
2010	265	21.32	6.79	17.32	0.00	989.81	427.44	42890
2010	266	21.08	7.28	17.29	0.00	951.16	419.37	42682
2010	267	22.20	8.91	18.55	0.00	994.21	374.13	42475
2010	268	17.84	12.29	16.31	4.40	425.22	124.44	42268
2010	269	15.32	10.54	14.01	1.91	325.86	57.04	42060
2010	270	15.30	8.68	13.48	0.00	421.64	163.07	41854
2010	271	18.56	9.44	16.05	0.03	641.32	263.23	41647
2010	272	16.19	7.96	13.93	0.11	520.82	255.11	41440
2010	273	12.99	8.02	11.62	0.18	293.65	163.94	41234
2010	274	13.12	8.36	11.81	0.00	285.62	170.37	41028
2010	275	13.83	9.52	12.64	0.00	274.11	139.14	40822
2010	276	13.22	10.02	12.34	0.00	204.57	136.89	40617
2010	277	16.43	10.18	14.71	0.00	430.79	197.71	40412
2010	278	16.73	10.88	15.12	0.92	416.18	166.88	40208
2010	279	11.51	9.79	11.04	0.16	105.08	132.99	40003
2010	280	16.15	6.83	13.59	0.00	565.64	265.58	39800
2010	281	13.97	4.18	11.28	0.00	513.12	215.76	39597
2010	282	14.47	1.38	10.87	0.00	625.97	304.62	39394
2010	283	14.91	0.77	11.02	0.00	668.14	340.38	39192
2010	284	15.28	1.24	11.42	0.00	680.99	326.74	38991
2010	285	15.10	1.47	11.35	0.00	663.86	258.04	38790
2010	286	14.08	2.31	10.84	0.00	577.17	184.16	38590
2010	287	14.05	3.98	11.28	0.00	524.88	291.47	38391
2010	288	12.75	1.46	9.65	0.00	519.80	254.45	38193
2010	289	12.26	4.87	10.23	0.00	382.09	175.09	37995
2010	290	9.06	3.94	7.65	1.12	237.57	58.21	37799
2010	291	8.19	6.20	7.64	0.46	98.73	48.98	37603
2010	292	8.51	6.46	7.95	0.05	103.45	40.22	37408
2010	293	7.55	3.46	6.43	0.59	179.98	52.89	37214
2010	294	11.61	1.13	8.73	0.00	463.83	278.46	37022
2010	295	12.98	-0.80	9.19	0.00	586.26	341.14	36830
2010	296	14.01	0.45	10.28	0.00	619.65	261.24	36640
2010	297	16.79	6.32	13.91	0.20	632.89	244.85	36451
2010	298	9.76	5.03	8.46	0.80	232.45	23.86	36263
2010	299	7.81	3.91	6.74	0.00	175.66	81.08	36076
2010	300	8.92	-0.25	6.40	0.00	361.10	311.54	35891
2010	301	9.88	-3.38	6.23	0.00	473.99	299.71	35707
2010	302	12.91	-1.65	8.91	0.00	599.03	309.66	35525
2010	303	16.00	-0.07	11.58	0.00	755.93	295.29	35345
2010	304	16.89	6.84	14.13	0.00	620.42	213.31	35166
2010	305	17.99	6.16	14.74	0.00	730.64	151.33	34988
2010	306	14.79	7.64	12.82	0.00	433.53	120.28	34813
2010	307	11.95	6.73	10.51	0.10	287.29	76.98	34639
2010	308	17.31	5.00	13.92	0.00	717.99	219.98	34468
2010	309	20.21	4.38	15.86	0.00	965.79	247.78	34298
2010	310	15.95	3.19	12.44	0.00	675.30	222.73	34130
2010	311	16.25	3.66	12.79	0.03	682.57	188.80	33964
2010	312	13.65	7.54	11.97	1.03	359.89	39.86	33801
2010	313	13.54	6.45	11.59	0.61	400.17	153.09	33640
2010	314	10.77	5.43	9.30	0.36	272.59	106.93	33481
2010	315	12.22	4.13	10.00	0.00	406.50	202.58	33325
2010	316	14.75	4.10	11.82	0.00	566.67	133.09	33171
2010	317	17.73	5.98	14.50	0.00	716.77	191.88	33019
2010	318	18.34	5.96	14.94	0.00	765.23	237.92	32871
2010	319	18.57	8.21	15.72	0.00	697.49	204.02	32725
2010	320	15.45	6.07	12.87	0.00	545.08	121.98	32582
2010	321	10.85	7.60	9.96	0.33	180.34	57.48	32441
2010	322	11.60	7.66	10.52	0.12	222.77	93.80	32304
2010	323	8.76	4.74	7.65	1.03	191.02	21.30	32170
2010	324	7.84	4.40	6.89	0.00	158.01	57.27	32039
2010	325	7.36	4.89	6.68	1.11	114.37	51.87	31911
2010	326	9.90	6.91	9.08	0.31	158.29	49.68	31786
2010	327	8.85	2.81	7.19	0.00	267.09	111.55	31665
2010	328	8.45	-0.99	5.85	0.00	357.20	205.32	31547
2010	329	7.62	-2.17	4.93	0.00	346.79	231.49	31433
2010	330	3.17	-3.20	1.42	0.74	194.25	129.04	31322
2010	331	4.66	-1.13	3.07	0.00	198.87	214.87	31215
2010	332	1.04	-2.17	0.16	2.22	96.92	31.95	31112
2010	333	2.93	-1.13	1.81	0.00	133.79	76.52	31012
2010	334	0.29	-5.20	-1.22	0.08	143.70	93.33	30917
2010	335	-1.56	-3.66	-2.14	1.25	55.99	44.23	30825
2010	336	-0.05	-2.82	-0.81	1.43	79.32	37.58	30738
2010	337	-0.76	-2.84	-1.33	0.68	58.50	62.65	30654
2010	338	-2.03	-9.26	-4.02	0.00	150.58	99.78	30575
2010	339	-2.22	-9.52	-4.23	0.00	149.63	74.20	30500
2010	340	6.31	-4.10	3.45	0.00	331.00	132.70	30430
2010	341	12.30	3.79	9.96	0.02	422.99	98.48	30363
2010	342	13.59	5.61	11.40	0.20	437.13	77.93	30301
2010	343	12.72	-1.01	8.94	0.46	575.90	18.62	30244
2010	344	1.13	-4.33	-0.37	0.19	151.24	145.51	30191
2010	345	1.46	-7.27	-0.94	0.00	216.15	79.95	30143
2010	346	5.88	-2.63	3.54	0.00	283.70	79.00	30099
2010	347	1.93	-4.58	0.14	0.00	182.07	133.86	30060
2010	348	-0.68	-8.22	-2.75	0.00	169.88	151.36	30025
2010	349	-0.21	-5.11	-1.56	0.00	127.15	112.92	29995
2010	350	-3.31	-8.88	-4.84	0.00	114.05	141.44	29970
2010	351	-4.71	-10.94	-6.42	0.72	112.58	84.76	29950
2010	352	-5.41	-10.97	-6.94	0.14	98.51	97.42	29934
2010	353	-2.20	-16.00	-5.99	0.00	215.01	115.84	29924
2010	354	5.74	-5.51	2.65	0.00	333.50	173.97	29918
2010	355	5.63	-6.69	2.24	0.00	347.53	156.62	29916
2010	356	7.85	-0.34	5.60	0.00	313.25	49.30	29920
2010	357	11.52	2.58	9.06	0.03	417.01	113.02	29928
2010	358	12.34	2.84	9.73	0.38	456.13	130.06	29941
2010	359	6.97	0.28	5.13	0.10	256.68	49.83	29959
2010	360	0.52	-3.67	-0.63	0.00	117.48	75.77	29982
2010	361	-0.13	-6.72	-1.94	0.00	160.28	180.44	30009
2010	362	0.20	-8.26	-2.13	0.00	194.66	92.44	30042
2010	363	-1.90	-9.27	-3.93	0.00	153.95	129.29	30078
2010	364	-4.38	-10.48	-6.06	0.00	113.42	52.55	30120
2010	365	-5.23	-7.08	-5.74	0.00	38.97	25.02	30166
2011	1	-3.86	-6.18	-4.50	0.00	52.56	37.70	30217
2011	2	-1.14	-5.17	-2.25	0.11	101.93	23.52	30272
2011	3	0.83	-7.05	-1.34	0.00	193.73	99.21	30331
2011	4	-3.50	-9.94	-5.27	0.00	125.41	59.20	30396
2011	5	-3.75	-5.12	-4.13	0.00	32.56	29.83	30464
2011	6	2.65	-7.19	-0.06	0.00	252.00	180.81	30537
2011	7	10.73	-1.08	7.48	0.00	470.67	146.34	30614
2011	8	9.26	2.24	7.33	0.00	306.63	58.79	30695
2011	9	11.91	-1.11	8.33	0.00	533.42	154.65	30781
2011	10	7.77	-0.85	5.40	0.06	322.61	60.47	30870
2011	11	3.35	1.30	2.79	0.02	75.21	40.22	30964
2011	12	5.68	0.45	4.24	0.04	195.93	76.72	31061
2011	13	6.44	-0.88	4.43	0.03	265.01	64.17	31162
2011	14	11.45	3.48	9.26	0.00	383.95	80.69	31268
2011	15	12.70	0.29	9.29	0.00	546.24	141.11	31376
2011	16	11.50	0.64	8.51	0.00	470.61	159.75	31489
2011	17	6.81	-1.75	4.46	0.02	302.20	84.97	31605
2011	18	3.01	-1.80	1.69	0.00	154.59	96.47	31724
2011	19	3.32	-2.77	1.65	0.76	189.65	27.13	31847
2011	20	3.21	0.66	2.51	0.00	90.90	111.58	31974
2011	21	1.49	-1.36	0.71	0.00	89.91	124.80	32103
2011	22	0.08	-2.50	-0.63	0.00	75.10	83.57	32236
2011	23	1.98	-5.93	-0.20	0.15	209.63	224.00	32372
2011	24	0.85	-4.31	-0.57	0.01	142.06	284.53	32510
2011	25	0.26	-6.13	-1.50	0.00	160.84	95.69	32652
2011	26	3.11	-4.83	0.93	0.04	226.37	98.88	32797
2011	27	0.45	-2.42	-0.34	0.07	84.57	46.92	32944
2011	28	-1.12	-5.30	-2.27	0.00	105.21	104.33	33094
2011	29	-1.06	-8.22	-3.03	0.00	159.75	118.91	33247
2011	30	-2.30	-7.39	-3.70	0.00	113.93	70.66	33402
2011	31	-2.48	-3.75	-2.83	0.00	32.99	59.57	33559
2011	32	-2.06	-5.60	-3.03	0.00	85.96	162.40	33719
2011	33	-1.16	-6.10	-2.52	0.00	120.13	149.27	33882
2011	34	2.42	-8.66	-0.63	0.00	265.69	222.70	34046
2011	35	6.37	-4.66	3.34	0.00	343.57	241.09	34213
2011	36	12.77	-2.10	8.68	0.00	599.48	259.99	34382
2011	37	11.80	-2.38	7.90	0.00	552.26	229.84	34552
2011	38	16.97	-2.47	11.62	0.00	858.10	282.01	34725
2011	39	13.78	-3.28	9.09	0.00	674.86	263.46	34900
2011	40	9.92	-1.44	6.80	0.00	437.83	249.39	35076
2011	41	9.19	-3.42	5.72	0.00	442.38	278.06	35254
2011	42	11.71	-1.57	8.06	0.07	532.10	161.96	35434
2011	43	8.66	0.53	6.42	0.01	327.87	80.93	35615
2011	44	3.22	-1.28	1.98	0.07	148.43	94.66	35798
2011	45	0.11	-1.40	-0.31	0.00	46.02	32.23	35983
2011	46	-0.60	-2.66	-1.17	0.05	58.60	42.19	36169
2011	47	1.35	-2.93	0.17	0.25	126.22	45.10	36356
2011	48	0.93	-0.76	0.47	0.12	53.91	49.59	36544
2011	49	2.56	0.52	2.00	0.00	71.22	62.89	36734
2011	50	6.28	-0.14	4.51	0.00	238.36	126.35	36925
2011	51	2.87	-2.17	1.48	0.00	159.04	88.41	37117
2011	52	-0.66	-5.76	-2.06	0.01	127.38	132.32	37310
2011	53	-2.53	-7.19	-3.81	0.00	104.58	104.81	37505
2011	54	-1.38	-9.39	-3.58	0.00	168.75	295.12	37700
2011	55	0.94	-10.38	-2.17	0.00	243.27	327.23	37896
2011	56	0.77	-8.53	-1.79	0.00	214.76	305.28	38093
2011	57	2.37	-5.90	0.10	0.00	221.62	178.75	38291
2011	58	-0.71	-6.88	-2.41	0.00	146.89	103.59	38490
2011	59	3.71	-3.85	1.63	0.00	227.59	232.22	38689
2011	60	0.87	-4.40	-0.58	0.03	144.63	60.91	38890
2011	61	2.63	-6.16	0.21	0.13	234.61	200.44	39091
2011	62	0.15	-2.60	-0.61	0.00	79.85	78.09	39292
2011	63	4.92	-4.27	2.39	0.00	280.35	244.37	39495
2011	64	6.22	-5.25	3.07	0.00	347.74	367.39	39697
2011	65	6.39	-4.17	3.49	0.00	335.51	331.27	39901
2011	66	3.34	-3.33	1.51	0.00	203.18	319.48	40105
2011	67	5.50	-8.34	1.69	0.00	364.39	391.53	40309
2011	68	8.23	-6.19	4.26	0.00	443.51	337.08	40514
2011	69	10.92	-2.90	7.12	0.00	516.34	190.12	40719
2011	70	14.52	-3.14	9.66	0.00	715.38	339.43	40924
2011	71	15.40	-2.50	10.48	0.00	758.95	353.72	41130
2011	72	16.64	6.84	13.95	0.00	601.59	302.73	41336
2011	73	19.30	7.88	16.16	0.00	772.39	270.55	41543
2011	74	19.86	5.68	15.96	0.00	898.52	351.35	41749
2011	75	13.96	5.35	11.59	0.89	471.08	72.92	41956
2011	76	15.54	9.08	13.76	0.08	419.68	157.18	42163
2011	77	12.23	5.15	10.28	0.14	369.66	85.45	42370
2011	78	6.64	3.78	5.85	0.14	124.80	67.33	42578
2011	79	8.78	2.09	6.94	0.00	287.30	338.20	42785
2011	80	9.63	0.30	7.06	0.00	381.68	366.02	42992
2011	81	13.75	-2.37	9.32	0.00	659.16	397.67	43200
2011	82	15.75	0.65	11.60	0.00	724.87	393.59	43407
2011	83	19.06	2.24	14.43	0.00	925.70	410.50	43615
2011	84	21.23	1.46	15.79	0.01	1114.78	402.79	43822
2011	85	20.63	4.19	16.11	0.59	1006.11	330.12	44029
2011	86	10.56	4.29	8.84	0.06	305.12	44.59	44236
2011	87	10.17	3.69	8.39	0.00	305.50	166.17	44443
2011	88	16.03	1.84	12.13	0.00	716.24	413.10	44650
2011	89	18.25	0.44	13.35	0.00	901.29	441.54	44857
2011	90	19.53	1.76	14.64	0.01	972.23	359.66	45063
2011	91	18.49	6.84	15.29	0.02	745.63	180.23	45270
2011	92	20.45	5.34	16.29	0.00	958.95	468.73	45475
2011	93	20.99	5.12	16.63	0.00	1011.95	391.41	45681
2011	94	23.15	6.51	18.57	0.89	1170.37	328.40	45886
2011	95	16.23	6.61	13.58	0.00	580.25	395.01	46091
2011	96	18.24	2.75	13.98	0.00	851.49	220.53	46295
2011	97	26.33	9.25	21.63	0.00	1417.21	418.59	46499
2011	98	21.30	11.11	18.50	0.00	806.75	312.76	46702
2011	99	20.19	8.05	16.85	0.00	842.64	472.39	46905
2011	100	18.46	4.17	14.53	0.00	830.81	461.85	47107
2011	101	18.12	7.55	15.21	0.00	688.12	343.99	47309
2011	102	20.82	6.78	16.96	0.54	945.30	250.62	47510
2011	103	12.06	3.96	9.83	0.00	402.94	346.07	47710
2011	104	11.46	4.47	9.54	0.01	349.59	202.34	47910
2011	105	12.33	2.95	9.75	0.00	452.12	296.59	48108
2011	106	13.42	5.50	11.24	0.00	430.42	231.06	48306
2011	107	16.56	1.96	12.55	0.00	749.55	343.70	48504
2011	108	18.30	1.66	13.72	0.00	880.87	354.11	48700
2011	109	19.69	1.96	14.81	0.00	980.71	404.63	48895
2011	110	22.02	3.31	16.87	0.00	1147.04	485.54	49089
2011	111	23.96	5.24	18.81	0.00	1283.99	480.69	49282
2011	112	23.94	5.19	18.78	0.00	1283.24	473.54	49475
2011	113	24.17	5.57	19.06	0.00	1296.59	474.35	49666
2011	114	23.83	10.01	20.03	0.00	1113.28	425.82	49855
2011	115	20.69	9.20	17.53	1.04	839.69	374.03	50044
2011	116	13.77	9.88	12.70	0.61	250.36	68.30	50231
2011	117	17.89	7.46	15.02	0.20	673.35	261.01	50417
2011	118	17.48	7.53	14.74	0.08	638.08	331.85	50601
2011	119	17.61	9.10	15.27	0.40	578.99	267.79	50784
2011	120	18.44	8.34	15.66	0.66	681.17	309.80	50966
2011	121	17.48	8.02	14.88	1.23	617.42	265.30	51145
2011	122	18.26	6.38	14.99	0.00	744.08	441.63	51324
2011	123	21.23	7.67	17.50	1.37	950.67	333.60	51500
2011	124	12.88	2.96	10.15	0.00	484.50	535.67	51674
2011	125	14.37	1.42	10.81	0.00	618.72	541.72	51847
2011	126	17.45	-0.12	12.62	0.00	854.60	553.08	52018
2011	127	20.92	3.38	16.10	0.00	1050.36	537.03	52187
2011	128	16.22	6.27	13.48	0.17	592.67	172.19	52353
2011	129	19.44	4.41	15.31	0.00	901.66	494.84	52518
2011	130	23.53	6.57	18.87	0.00	1205.77	525.48	52680
2011	131	24.25	8.15	19.82	0.00	1228.34	521.76	52840
2011	132	26.11	8.43	21.25	0.53	1419.94	493.23	52998
2011	133	22.28	12.34	19.55	0.00	838.78	519.18	53153
2011	134	24.39	9.36	20.26	0.66	1198.89	412.02	53306
2011	135	17.36	10.15	15.38	0.70	506.55	126.22	53456
2011	136	17.25	9.33	15.07	0.00	539.03	427.55	53603
2011	137	20.03	8.18	16.77	0.00	823.34	421.07	53748
2011	138	23.36	8.00	19.14	0.00	1142.75	481.98	53889
2011	139	25.85	9.57	21.37	0.01	1350.99	487.93	54028
2011	140	26.60	10.37	22.14	0.00	1406.81	508.93	54164
2011	141	26.83	11.64	22.65	0.19	1380.93	414.66	54297
2011	142	26.69	11.09	22.40	0.00	1388.04	493.65	54426
2011	143	26.00	12.40	22.26	0.00	1245.76	391.71	54552
2011	144	28.63	12.29	24.14	0.00	1578.48	512.42	54675
2011	145	23.77	14.56	21.24	0.00	865.60	511.56	54795
2011	146	26.02	7.73	20.99	0.00	1431.67	517.64	54911
2011	147	28.97	10.88	24.00	0.07	1680.34	496.15	55023
2011	148	19.59	10.15	16.99	0.50	696.25	217.25	55132
2011	149	22.59	6.83	18.26	0.01	1106.60	454.84	55237
2011	150	24.97	8.59	20.47	0.00	1289.28	515.62	55339
2011	151	28.23	10.90	23.46	0.00	1584.83	507.54	55436
2011	152	24.47	13.01	21.32	0.10	1036.99	276.31	55530
2011	153	22.45	16.09	20.70	0.07	612.77	344.29	55619
2011	154	26.60	15.38	23.51	0.18	1150.34	395.19	55705
2011	155	27.13	14.89	23.76	0.15	1248.38	396.96	55786
2011	156	27.38	13.18	23.48	0.05	1375.35	399.02	55863
2011	157	26.92	13.86	23.33	0.00	1281.32	424.09	55936
2011	158	27.70	14.61	24.10	1.74	1338.69	430.20	56004
2011	159	25.22	14.66	22.32	0.54	1026.66	375.01	56068
2011	160	20.24	14.04	18.54	0.19	531.48	245.75	56128
2011	161	22.18	11.96	19.37	0.00	849.33	518.27	56183
2011	162	23.87	10.68	20.24	0.00	1088.14	541.61	56234
2011	163	24.26	12.24	20.95	0.00	1054.77	470.82	56280
2011	164	25.95	12.69	22.30	0.05	1225.21	451.45	56321
2011	165	25.08	14.01	22.04	0.06	1049.77	289.78	56358
2011	166	26.85	14.18	23.37	0.11	1254.55	500.57	56390
2011	167	29.05	12.73	24.56	0.00	1614.22	490.06	56418
2011	168	25.80	14.65	22.73	0.00	1096.97	371.97	56440
2011	169	28.30	17.42	25.31	2.10	1236.40	281.41	56458
2011	170	23.57	10.72	20.04	0.67	1054.60	167.14	56472
2011	171	23.43	7.93	19.17	0.00	1152.20	495.50	56480
2011	172	28.30	12.02	23.82	0.00	1547.57	497.85	56484
2011	173	30.00	13.85	25.56	0.00	1691.43	505.84	56482
2011	174	27.41	17.40	24.66	1.52	1116.21	446.23	56476
2011	175	22.82	14.43	20.51	0.38	769.53	213.47	56466
2011	176	20.96	9.84	17.90	0.00	836.01	434.92	56450
2011	177	20.83	12.02	18.41	0.18	712.70	251.29	56430
2011	178	25.15	12.22	21.59	0.00	1155.82	454.02	56405
2011	179	25.59	14.94	22.66	0.00	1053.38	545.28	56375
2011	180	28.54	15.27	24.89	0.00	1411.84	543.93	56341
2011	181	29.38	14.27	25.22	0.12	1583.40	429.51	56301
2011	182	22.53	14.04	20.20	0.15	763.67	451.84	56258
2011	183	20.39	10.76	17.74	0.27	738.42	369.13	56209
2011	184	20.79	7.43	17.12	0.02	919.65	233.07	56156
2011	185	25.24	12.86	21.84	0.04	1133.08	315.17	56099
2011	186	22.98	14.28	20.59	0.05	796.54	255.20	56037
2011	187	28.17	13.44	24.12	0.01	1463.62	461.63	55971
2011	188	31.97	14.60	27.19	0.00	1943.98	510.87	55900
2011	189	31.81	18.43	28.13	0.00	1688.50	435.79	55825
2011	190	34.67	14.97	29.25	0.00	2362.63	509.47	55746
2011	191	33.14	17.43	28.82	0.00	1973.22	506.78	55663
2011	192	30.29	17.96	26.90	0.00	1485.59	477.65	55575
2011	193	30.53	15.40	26.37	0.00	1685.67	503.71	55484
2011	194	33.88	16.66	29.14	0.00	2143.14	399.48	55388
2011	195	30.64	20.22	27.77	1.78	1360.49	389.31	55289
2011	196	22.81	15.47	20.79	0.00	697.50	297.95	55186
2011	197	26.68	12.19	22.70	0.00	1337.45	446.00	55079
2011	198	30.56	13.27	25.81	0.00	1798.27	507.52	54968
2011	199	27.41	16.06	24.29	0.12	1210.61	418.22	54854
2011	200	28.57	13.11	24.32	0.13	1532.55	390.68	54736
2011	201	24.02	14.79	21.48	1.20	878.89	195.75	54615
2011	202	24.52	13.61	21.52	0.18	1008.62	357.51	54490
2011	203	26.04	13.08	22.48	0.48	1215.65	320.28	54362
2011	204	18.98	14.19	17.66	0.58	402.03	115.02	54231
2011	205	16.41	12.36	15.30	1.26	301.77	66.22	54097
2011	206	15.90	11.55	14.70	0.03	311.43	118.97	53960
2011	207	17.92	13.28	16.64	0.00	368.84	82.84	53819
2011	208	25.53	12.79	22.03	0.01	1170.53	497.80	53676
2011	209	20.81	15.11	19.24	2.56	513.22	47.84	53530
2011	210	23.09	14.67	20.77	0.00	783.08	379.28	53382
2011	211	24.24	13.25	21.22	0.61	997.70	276.44	53230
2011	212	22.49	14.12	20.19	0.00	754.32	246.83	53076
2011	213	22.87	14.50	20.57	0.01	770.35	308.38	52920
2011	214	26.34	15.32	23.31	0.00	1121.46	473.24	52761
2011	215	27.82	13.57	23.90	0.74	1411.45	374.56	52600
2011	216	23.39	16.95	21.62	1.88	651.42	92.34	52437
2011	217	26.79	15.43	23.67	0.00	1171.29	452.26	52271
2011	218	26.78	14.39	23.37	0.00	1233.63	380.60	52103
2011	219	30.13	17.30	26.60	0.04	1508.03	445.55	51934
2011	220	24.64	15.45	22.11	1.09	906.56	258.79	51762
2011	221	22.50	13.58	20.05	1.33	789.26	362.47	51588
2011	222	20.20	11.29	17.75	0.00	693.16	353.76	51413
2011	223	23.82	6.82	19.15	0.00	1227.15	517.59	51235
2011	224	26.43	10.30	21.99	0.01	1389.63	442.00	51057
2011	225	25.56	14.78	22.60	0.00	1059.85	307.52	50876
2011	226	28.76	13.13	24.46	0.00	1556.77	474.66	50694
2011	227	29.88	14.69	25.70	0.76	1631.06	460.87	50510
2011	228	25.10	15.16	22.37	0.00	980.36	459.57	50325
2011	229	27.41	13.73	23.65	0.00	1350.35	465.70	50138
2011	230	29.87	14.89	25.75	0.74	1618.73	457.55	49951
2011	231	31.01	16.16	26.93	0.35	1712.99	359.33	49761
2011	232	27.07	16.12	24.06	0.00	1162.03	450.57	49571
2011	233	29.26	16.31	25.70	0.00	1447.36	429.77	49380
2011	234	32.38	18.03	28.43	0.00	1808.79	433.39	49187
2011	235	33.70	18.85	29.62	0.00	1974.06	451.94	48993
2011	236	34.56	17.66	29.91	0.00	2201.96	462.50	48798
2011	237	32.16	17.23	28.05	0.00	1825.89	445.46	48603
2011	238	34.80	17.14	29.94	0.00	2274.74	446.39	48406
2011	239	32.02	17.41	28.00	1.48	1791.93	432.02	48208
2011	240	22.32	12.58	19.64	0.00	829.45	391.15	48010
2011	241	26.04	10.29	21.71	0.00	1344.83	440.34	47811
2011	242	24.97	14.61	22.12	0.00	1000.25	387.15	47611
2011	243	25.79	13.17	22.32	0.00	1181.02	425.78	47410
2011	244	28.27	13.02	24.08	0.73	1497.55	401.06	47209
2011	245	27.13	14.29	23.60	0.06	1283.65	393.99	47007
2011	246	28.25	14.49	24.47	0.00	1418.03	478.24	46805
2011	247	30.37	15.12	26.18	0.00	1677.95	426.52	46601
2011	248	29.15	17.47	25.94	0.03	1352.93	382.72	46398
2011	249	23.99	14.69	21.43	0.00	882.00	413.72	46194
2011	250	25.93	10.27	21.62	0.00	1333.00	374.31	45989
2011	251	20.93	14.44	19.15	0.01	572.35	178.57	45784
2011	252	21.23	13.55	19.12	0.00	660.85	182.48	45579
2011	253	28.61	13.23	24.38	0.00	1532.00	424.04	45373
2011	254	30.61	13.96	26.03	0.00	1773.01	428.87	45167
2011	255	28.35	15.45	24.80	0.09	1375.16	299.06	44961
2011	256	28.68	13.36	24.47	0.00	1534.89	407.23	44755
2011	257	29.28	14.77	25.29	0.06	1542.43	377.41	44548
2011	258	21.27	11.78	18.66	0.00	768.55	230.49	44341
2011	259	24.89	11.70	21.26	0.00	1151.96	362.26	44134
2011	260	26.69	10.85	22.33	0.00	1398.08	362.77	43927
2011	261	28.59	12.72	24.23	0.02	1553.70	376.81	43719
2011	262	21.87	10.48	18.74	2.67	893.25	243.52	43512
2011	263	16.21	9.59	14.39	0.00	444.55	124.93	43304
2011	264	21.08	12.30	18.67	0.00	721.09	350.06	43097
2011	265	23.04	11.34	19.82	0.00	969.63	315.25	42890
2011	266	22.33	10.48	19.07	0.00	938.72	364.36	42682
2011	267	22.19	11.10	19.14	0.00	894.82	311.20	42475
2011	268	23.45	8.70	19.39	0.00	1126.40	379.82	42268
2011	269	24.37	8.06	19.88	0.00	1243.89	375.16	42060
2011	270	24.92	8.82	20.49	0.00	1275.78	351.21	41854
2011	271	23.85	9.49	19.90	0.00	1136.85	352.42	41647
2011	272	22.61	7.57	18.47	0.00	1083.97	378.73	41440
2011	273	23.87	10.25	20.12	0.00	1107.20	363.85	41234
2011	274	25.80	8.44	21.03	0.00	1385.03	362.51	41028
2011	275	24.79	9.77	20.66	0.00	1225.78	363.99	40822
2011	276	25.24	8.04	20.51	0.00	1336.81	351.85	40617
2011	277	26.31	7.78	21.21	0.00	1462.48	339.76	40412
2011	278	25.76	8.71	21.07	0.00	1371.56	339.00	40208
2011	279	24.15	10.41	20.37	0.00	1130.01	299.77	40003
2011	280	16.92	6.06	13.93	2.78	652.26	26.13	39800
2011	281	13.70	1.53	10.35	0.01	574.59	252.18	39597
2011	282	11.15	1.16	8.40	0.00	437.84	228.65	39394
2011	283	10.46	0.26	7.66	0.07	424.99	115.10	39192
2011	284	21.37	7.51	17.56	0.00	969.34	254.92	38991
2011	285	19.60	8.65	16.59	0.33	340.91	203.99	38790
2011	286	13.08	7.30	11.49	0.00	391.82	165.99	38590
2011	287	10.96	2.98	8.77	0.00	431.82	302.34	38391
2011	288	11.88	-0.70	8.42	0.00	404.55	357.78	38193
2011	289	10.65	1.21	8.05	0.00	510.00	352.76	37995
2011	290	12.00	-3.34	7.78	0.00	525.45	350.44	37799
2011	291	14.06	-2.20	9.59	0.00	600.00	329.07	37603
2011	292	20.20	0.79	14.86	1.06	758.18	297.87	37408
2011	293	13.97	5.20	11.56	0.41	208.18	75.38	37214
2011	294	10.31	3.59	8.46	0.00	375.45	250.76	37022
2011	295	9.50	-1.92	6.36	0.00	276.36	229.01	36830
2011	296	7.33	5.15	6.73	0.92	70.00	40.34	36640
2011	297	9.18	6.68	8.49	0.71	28.18	33.67	36451
2011	298	9.98	6.76	9.09	0.01	50.91	60.38	36263
2011	299	10.85	7.86	10.03	0.25	117.27	69.64	36076
2011	300	9.93	7.57	9.28	0.01	72.73	53.39	35891
2011	301	11.54	8.26	10.64	0.00	92.00	80.89	35707
2011	302	11.89	8.53	10.97	0.00	208.00	80.12	35525
2011	303	14.20	5.66	11.85	0.00	400.00	195.03	35345
2011	304	14.29	1.91	10.89	0.00	218.00	256.84	35166
2011	305	8.05	2.35	6.48	0.01	25.00	45.47	34988
2011	306	8.45	5.54	7.65	0.01	53.00	52.73	34813
2011	307	9.26	5.06	8.11	0.00	70.00	63.39	34639
2011	308	17.54	4.75	14.02	0.00	488.00	233.18	34468
2011	309	19.56	10.51	17.07	0.00	673.00	192.31	34298
2011	310	14.35	5.36	11.88	0.01	300.00	144.54	34130
2011	311	11.11	3.00	8.88	0.00	194.44	145.70	33964
2011	312	12.11	4.75	10.09	0.00	196.67	201.43	33801
2011	313	8.47	2.08	6.71	0.00	20.00	65.27	33640
2011	314	8.71	5.93	7.95	0.00	16.67	44.67	33481
2011	315	7.21	0.16	5.27	0.00	312.22	229.61	33325
2011	316	8.54	-2.33	5.55	0.00	243.33	207.79	33171
2011	317	9.04	-3.87	5.49	0.00	298.89	234.68	33019
2011	318	8.14	-4.38	4.70	0.00	175.00	195.39	32871
2011	319	6.37	-3.91	3.54	0.00	86.67	196.29	32725
2011	320	1.10	-4.76	-0.51	0.00	18.89	63.75	32582
2011	321	0.57	-3.48	-0.54	0.00	15.56	56.75	32441
2011	322	0.04	-2.07	-0.54	0.00	10.00	53.41	32304
2011	323	-0.72	-2.55	-1.22	0.00	20.00	28.98	32170
2011	324	-1.40	-2.97	-1.83	0.00	20.00	21.52	32039
2011	325	-2.46	-3.95	-2.87	0.00	20.00	22.36	31911
2011	326	-2.90	-4.19	-3.25	0.00	20.00	22.92	31786
2011	327	-1.09	-3.59	-1.78	0.00	20.00	27.65	31665
2011	328	-0.53	-1.78	-0.87	0.00	14.44	28.29	31547
2011	329	-0.13	-1.69	-0.56	0.00	10.00	20.62	31433
2011	330	1.87	-0.76	1.15	0.00	10.00	38.36	31322
2011	331	1.67	-0.92	0.96	0.00	10.00	62.18	31215
2011	332	9.73	-2.04	6.49	0.00	158.89	199.06	31112
2011	333	3.97	-2.30	2.25	0.00	12.22	99.18	31012
2011	334	0.04	-1.66	-0.43	0.00	10.00	35.42	30917
2011	335	0.05	-2.48	-0.65	0.00	10.00	58.28	30825
2011	336	0.53	-2.22	-0.23	0.01	10.00	30.55	30738
2011	337	1.68	-0.44	1.10	0.13	10.00	31.19	30654
2011	338	9.75	-0.13	7.03	0.00	65.56	116.63	30575
2011	339	12.35	4.55	10.21	0.19	505.56	18.87	30500
2011	340	6.59	-0.95	4.52	0.00	267.78	110.25	30430
2011	341	4.80	-1.95	2.94	0.00	166.67	91.62	30363
2011	342	8.76	-0.24	6.29	0.00	545.56	194.96	30301
2011	343	7.24	-2.21	4.64	0.00	301.11	65.94	30244
2011	344	8.71	2.52	7.01	0.00	283.33	96.04	30191
2011	345	6.05	1.56	4.82	0.00	202.22	43.43	30143
2011	346	8.52	3.65	7.18	0.98	112.22	102.13	30099
2011	347	7.83	0.09	5.70	0.00	61.11	128.07	30060
2011	348	10.84	-0.59	7.70	0.69	215.00	143.31	30025
2011	349	9.96	4.01	8.32	0.55	42.50	18.54	29995
2011	350	9.30	-0.85	6.51	1.99	115.00	93.23	29970
2011	351	10.38	1.54	7.95	0.00	381.25	67.07	29950
2011	352	7.01	-2.11	4.50	0.00	386.25	180.79	29934
2011	353	1.90	-2.55	0.68	0.01	117.50	41.49	29924
2011	354	2.84	-4.16	0.91	0.00	271.25	182.13	29918
2011	355	2.57	-6.28	0.14	0.00	136.25	70.58	29916
2011	356	5.07	-2.82	2.90	0.00	201.25	131.52	29920
2011	357	2.95	-1.91	1.61	0.06	60.00	61.63	29928
2011	358	4.65	-2.03	2.81	0.00	132.50	128.63	29941
2011	359	7.07	-0.43	5.01	0.00	433.75	169.15	29959
2011	360	4.84	0.90	3.76	0.01	270.00	40.49	29982
2011	361	6.47	1.08	4.99	0.00	157.50	79.64	30009
2011	362	2.78	-1.00	1.74	0.00	13.75	32.01	30042
2011	363	1.32	-1.89	0.44	0.00	26.25	29.42	30078
2011	364	2.66	-1.53	1.51	0.00	82.50	52.87	30120
2011	365	7.05	-3.38	4.18	0.00	378.75	189.57	30166
2012	1	5.12	-1.30	3.35	0.01	166.25	71.59	30217
2012	2	10.93	-0.99	7.65	0.39	405.00	150.32	30272
2012	3	8.23	2.31	6.60	0.00	60.00	63.96	30331
2012	4	9.55	0.86	7.16	0.13	92.50	91.83	30396
2012	5	6.24	-0.61	4.36	0.00	203.75	42.67	30464
2012	6	7.95	-0.02	5.76	0.00	503.75	189.60	30537
2012	7	7.32	-0.63	5.13	0.01	361.25	141.91	30614
2012	8	7.87	-0.44	5.58	0.02	312.50	127.47	30695
2012	9	7.32	0.14	5.35	0.17	318.75	112.87	30781
2012	10	7.70	-0.05	5.57	0.03	281.25	117.68	30870
2012	11	8.95	-0.60	6.32	0.00	330.00	156.74	30964
2012	12	9.66	-0.95	6.74	0.00	443.33	195.25	31061
2012	13	8.93	-1.19	6.15	0.05	487.78	198.96	31162
2012	14	5.01	-1.81	3.13	0.02	288.89	172.29	31268
2012	15	2.72	-3.05	1.13	0.00	201.11	130.49	31376
2012	16	1.81	-3.64	0.31	0.00	282.22	193.22	31489
2012	17	4.02	-4.36	1.72	0.01	315.56	99.10	31605
2012	18	7.37	-0.80	5.12	0.01	492.22	184.39	31724
2012	19	6.12	-2.79	3.67	0.03	343.33	63.90	31847
2012	20	5.71	1.12	4.45	0.09	90.00	30.36	31974
2012	21	5.70	-3.35	3.21	0.01	256.00	173.14	32103
2012	22	10.79	1.18	8.15	0.01	499.00	201.96	32236
2012	23	10.19	0.09	7.41	0.16	460.00	116.34	32372
2012	24	5.57	0.58	4.20	0.01	125.00	95.80	32510
2012	25	3.28	-2.03	1.82	0.00	252.00	237.42	32652
2012	26	1.46	-3.37	0.13	0.00	232.00	238.99	32797
2012	27	2.15	-8.17	-0.69	0.00	206.00	268.94	32944
2012	28	2.05	-7.98	-0.71	0.00	174.00	243.12	33094
2012	29	-1.02	-4.45	-1.96	0.00	136.00	98.73	33247
2012	30	0.40	-9.31	-2.27	0.00	171.00	236.79	33402
2012	31	-2.23	-11.29	-4.72	0.00	182.00	268.76	33559
2012	32	-2.38	-9.70	-4.39	0.00	138.00	165.19	33719
2012	33	-4.95	-12.34	-6.98	0.00	154.00	180.51	33882
2012	34	-8.36	-14.10	-9.94	0.00	108.00	113.64	34046
2012	35	-8.38	-10.89	-9.07	0.01	186.00	71.69	34213
2012	36	-6.67	-11.02	-7.87	0.00	159.00	196.35	34382
2012	37	-8.68	-12.46	-9.72	0.17	117.00	91.79	34552
2012	38	-7.94	-11.58	-8.94	0.06	80.00	98.33	34725
2012	39	-3.47	-12.92	-6.07	0.00	149.00	255.29	34900
2012	40	-3.00	-14.50	-6.16	0.04	158.00	250.60	35076
2012	41	-6.43	-11.39	-7.79	0.00	101.00	194.15	35254
2012	42	-8.72	-13.52	-10.04	0.16	67.00	111.04	35434
2012	43	-6.37	-11.57	-7.80	0.00	126.00	139.25	35615
2012	44	-1.00	-10.20	-3.53	0.00	224.00	215.21	35798
2012	45	1.07	-10.95	-2.24	0.00	249.00	270.86	35983
2012	46	5.43	-6.35	2.19	0.09	300.00	153.74	36169
2012	47	4.10	-1.46	2.57	0.00	338.00	266.86	36356
2012	48	7.63	-4.98	4.16	0.00	409.00	162.50	36544
2012	49	8.58	0.99	6.49	0.00	417.00	137.58	36734
2012	50	10.45	-3.33	6.66	0.24	408.00	247.94	36925
2012	51	5.63	1.02	4.36	0.00	304.00	175.96	37117
2012	52	6.92	-4.94	3.66	0.00	378.00	327.89	37310
2012	53	9.54	-5.32	5.45	0.00	409.00	299.79	37505
2012	54	9.42	-3.68	5.82	0.00	362.73	209.94	37700
2012	55	18.37	2.79	14.09	0.00	894.55	313.92	37896
2012	56	15.96	3.71	12.59	0.07	876.36	291.53	38093
2012	57	9.67	1.06	7.30	0.03	387.27	180.39	38291
2012	58	6.72	-1.85	4.36	0.01	466.36	329.71	38490
2012	59	6.13	-1.32	4.08	0.27	207.27	110.65	38689
2012	60	12.81	1.30	9.64	0.00	584.55	185.81	38890
2012	61	14.78	2.89	11.51	0.00	275.45	129.39	39091
2012	62	13.54	7.56	11.90	0.00	440.83	292.45	39292
2012	63	16.95	3.33	13.20	0.00	649.17	361.72	39495
2012	64	11.04	2.20	8.61	0.00	513.33	311.94	39697
2012	65	8.71	-3.70	5.30	0.00	522.50	334.21	39901
2012	66	9.51	-1.35	6.52	0.00	395.83	370.38	40105
2012	67	7.50	-4.26	4.27	0.00	393.33	368.17	40309
2012	68	6.06	-7.05	2.45	0.00	520.00	262.12	40514
2012	69	8.55	-2.94	5.39	0.00	500.00	312.10	40719
2012	70	9.76	0.56	7.23	0.00	513.33	393.58	40924
2012	71	10.79	-4.24	6.66	0.00	399.17	77.12	41130
2012	72	10.18	-2.14	6.79	0.00	236.67	54.07	41336
2012	73	9.14	5.60	8.17	0.07	461.67	245.03	41543
2012	74	13.08	6.37	11.23	0.00	515.00	357.18	41749
2012	75	13.17	1.85	10.06	0.00	597.50	381.33	41956
2012	76	13.82	2.29	10.65	0.00	846.67	398.84	42163
2012	77	19.46	-1.80	13.61	0.00	1335.83	395.16	42370
2012	78	22.85	1.59	17.00	0.00	850.83	367.56	42578
2012	79	18.29	8.24	15.53	0.00	519.17	243.53	42785
2012	80	14.93	6.32	12.56	0.03	727.50	313.34	42992
2012	81	15.72	5.29	12.85	0.00	872.50	385.07	43200
2012	82	18.83	0.27	13.73	0.00	1005.00	396.42	43407
2012	83	19.88	1.38	14.79	0.00	1200.00	369.46	43615
2012	84	21.54	2.08	16.19	0.00	1170.83	377.45	43822
2012	85	21.16	4.45	16.56	0.00	1200.83	412.00	44029
2012	86	20.87	6.64	16.96	0.00	1016.67	451.58	44236
2012	87	16.48	7.92	14.13	0.00	1143.33	422.46	44443
2012	88	18.92	-0.06	13.70	0.00	1065.83	397.78	44650
2012	89	20.62	8.50	17.29	0.00	1207.50	136.14	44857
2012	90	19.86	6.66	16.23	0.00	418.33	176.73	45063
2012	91	14.38	5.02	11.81	0.00	1192.50	395.64	45270
2012	92	20.63	4.97	16.32	0.00	642.50	447.83	45475
2012	93	13.76	1.62	10.42	0.00	919.23	455.18	45681
2012	94	17.92	-3.28	12.09	0.00	1053.85	465.03	45886
2012	95	20.81	4.21	16.24	0.00	1065.38	401.02	46091
2012	96	22.83	9.94	19.29	0.00	1031.54	364.52	46295
2012	97	23.00	7.05	18.61	0.95	144.29	112.16	46499
2012	98	15.37	7.03	13.08	0.09	69.29	70.37	46702
2012	99	11.35	6.93	10.13	0.38	396.43	367.14	46905
2012	100	8.08	1.94	6.39	0.00	546.43	489.44	47107
2012	101	9.38	-1.76	6.32	0.00	793.57	424.76	47309
2012	102	14.99	-2.47	10.19	0.00	767.14	369.73	47510
2012	103	16.99	6.76	14.18	0.80	297.86	174.71	47710
2012	104	13.99	5.49	11.65	0.33	402.86	351.32	47910
2012	105	16.82	1.49	12.60	0.10	296.43	111.53	48108
2012	106	12.70	7.88	11.37	0.01	315.00	186.26	48306
2012	107	13.34	8.68	12.06	0.00	337.14	137.34	48504
2012	108	12.54	6.27	10.82	0.01	527.86	380.99	48700
2012	109	11.45	4.86	9.64	0.00	504.29	207.07	48895
2012	110	11.98	2.78	9.45	0.01	711.43	470.42	49089
2012	111	17.59	3.59	13.74	0.00	795.00	414.75	49282
2012	112	19.16	4.78	15.21	0.00	432.86	258.85	49475
2012	113	16.80	5.05	13.57	0.07	367.14	168.44	49666
2012	114	16.28	5.38	13.28	0.97	417.86	299.25	49855
2012	115	14.96	3.02	11.68	0.00	426.43	247.49	50044
2012	116	17.38	5.86	14.21	0.21	738.57	485.35	50231
2012	117	18.67	5.78	15.13	0.00	1307.86	525.66	50417
2012	118	23.24	7.99	19.05	0.00	1205.00	500.85	50601
2012	119	24.59	5.69	19.39	0.00	1582.86	510.75	50784
2012	120	27.70	8.07	22.30	0.00	2016.43	489.95	50966
2012	121	28.92	10.92	23.97	0.00	2012.86	507.12	51145
2012	122	28.54	10.69	23.63	0.00	1951.43	496.58	51324
2012	123	29.15	11.48	24.29	0.00	1850.00	471.58	51500
2012	124	29.23	11.39	24.32	0.01	758.57	279.20	51674
2012	125	23.35	13.32	20.59	1.43	350.71	231.20	51847
2012	126	18.82	11.72	16.87	0.77	1014.00	511.57	52018
2012	127	22.78	9.45	19.11	0.00	937.33	496.37	52187
2012	128	22.50	9.64	18.96	0.03	494.67	186.95	52353
2012	129	17.96	11.32	16.13	0.31	896.67	500.64	52518
2012	130	21.66	6.92	17.61	0.00	1156.00	516.77	52680
2012	131	23.91	7.95	19.52	0.00	1477.33	482.73	52840
2012	132	25.40	9.48	21.02	0.00	1486.00	487.54	52998
2012	133	27.14	10.16	22.47	0.00	1064.00	375.57	53153
2012	134	27.29	11.99	23.08	1.43	621.33	403.37	53306
2012	135	13.76	7.11	11.93	0.00	434.67	211.15	53456
2012	136	12.46	6.85	10.92	0.00	696.00	408.43	53603
2012	137	18.04	7.94	15.26	0.00	584.67	234.61	53748
2012	138	14.15	6.15	11.95	0.00	796.00	564.66	53889
2012	139	14.92	7.82	12.97	0.00	834.67	549.33	54028
2012	140	17.38	0.96	12.86	0.00	1052.00	541.22	54164
2012	141	22.00	2.92	16.75	0.00	1192.67	515.23	54297
2012	142	25.16	6.70	20.08	0.00	632.00	202.74	54426
2012	143	21.32	11.14	18.52	0.21	115.63	86.96	54552
2012	144	18.39	13.23	16.97	2.57	668.75	407.89	54675
2012	145	25.88	12.53	22.21	0.22	1141.88	415.58	54795
2012	146	25.98	15.74	23.16	0.07	1189.38	428.95	54911
2012	147	22.09	13.72	19.79	0.00	1088.13	376.42	55023
2012	148	20.77	10.07	17.83	0.00	1171.88	509.18	55132
2012	149	22.04	8.47	18.31	0.00	776.25	289.59	55237
2012	150	22.60	7.23	18.37	0.11	1100.63	440.36	55339
2012	151	23.68	10.26	19.99	0.01	969.38	407.07	55436
2012	152	26.08	11.99	22.21	0.35	531.25	309.00	55530
2012	153	23.18	11.55	19.98	0.87	772.50	361.82	55619
2012	154	23.41	13.17	20.59	0.02	456.25	214.12	55705
2012	155	20.27	11.61	17.89	0.00	1072.50	485.33	55786
2012	156	28.05	13.13	23.95	0.00	623.13	327.85	55863
2012	157	24.19	14.32	21.48	0.41	841.87	453.99	55936
2012	158	21.15	11.91	18.61	0.00	749.38	436.72	56004
2012	159	21.73	4.75	17.06	0.00	1097.50	446.08	56068
2012	160	26.92	11.36	22.64	0.00	1501.87	445.99	56128
2012	161	29.79	14.18	25.50	0.00	398.75	171.51	56183
2012	162	25.39	15.03	22.54	2.07	463.13	271.23	56234
2012	163	23.85	13.81	21.09	0.39	212.50	207.46	56280
2012	164	21.43	12.97	19.10	0.74	138.75	155.83	56321
2012	165	18.84	12.84	17.19	0.19	520.00	262.26	56358
2012	166	20.50	11.74	18.09	0.31	879.38	397.68	56390
2012	167	23.25	11.27	19.96	0.01	968.75	481.92	56418
2012	168	26.17	11.41	22.11	0.00	1520.00	556.72	56440
2012	169	29.14	13.35	24.80	0.00	1758.75	523.77	56458
2012	170	30.58	13.81	25.97	0.00	1793.13	540.45	56472
2012	171	31.50	15.02	26.97	0.00	1897.50	490.90	56480
2012	172	32.48	15.74	27.88	0.00	1776.87	483.40	56484
2012	173	32.99	17.09	28.62	0.00	1575.00	488.47	56482
2012	174	32.04	18.58	28.34	0.00	1412.50	320.75	56476
2012	175	27.84	18.32	25.22	0.00	1535.63	444.60	56466
2012	176	26.74	14.93	23.49	0.00	1591.88	496.62	56450
2012	177	29.76	13.19	25.20	0.03	428.75	108.77	56430
2012	178	25.40	15.53	22.69	1.28	1095.63	458.30	56405
2012	179	24.73	11.81	21.18	0.00	1310.63	481.29	56375
2012	180	26.33	11.10	22.14	0.00	1664.38	414.84	56341
2012	181	30.10	13.24	25.46	0.00	1753.13	449.80	56301
2012	182	32.86	16.49	28.36	0.00	2033.75	501.34	56258
2012	183	35.04	17.89	30.32	0.00	2240.00	483.09	56209
2012	184	35.26	19.37	30.89	0.00	2162.50	493.80	56156
2012	185	35.19	20.43	31.13	0.00	2374.38	461.62	56099
2012	186	35.31	19.68	31.01	0.31	1738.12	483.47	56037
2012	187	32.80	18.98	29.00	0.00	1950.63	419.58	55971
2012	188	34.85	18.24	30.28	0.01	2046.25	436.23	55900
2012	189	34.45	16.71	29.57	0.05	2060.63	489.73	55825
2012	190	33.43	16.17	28.68	0.00	2156.25	513.46	55746
2012	191	33.37	19.12	29.45	0.00	1789.38	457.42	55663
2012	192	31.12	19.06	27.80	0.88	1315.00	468.42	55575
2012	193	30.35	17.21	26.74	0.07	1198.13	468.23	55484
2012	194	31.14	16.06	26.99	1.50	905.63	309.73	55388
2012	195	24.56	16.50	22.34	0.01	357.50	173.45	55289
2012	196	21.08	14.55	19.28	0.10	878.13	394.49	55186
2012	197	29.32	11.12	24.31	2.10	298.13	173.32	55079
2012	198	19.39	13.11	17.66	0.26	903.13	315.86	54968
2012	199	22.84	11.54	19.73	0.02	1170.00	302.12	54854
2012	200	24.97	8.77	20.51	0.00	1328.13	309.35	54736
2012	201	26.67	12.18	22.69	0.00	1766.25	367.93	54615
2012	202	31.54	14.59	26.88	0.45	1024.38	446.94	54490
2012	203	26.36	16.14	23.55	0.01	185.00	115.34	54362
2012	204	21.94	14.53	19.90	0.24	584.38	255.27	54231
2012	205	18.98	12.16	17.10	0.00	1070.00	414.63	54097
2012	206	24.58	13.81	21.62	0.30	748.75	309.52	53960
2012	207	27.63	14.57	24.04	2.30	391.88	239.34	53819
2012	208	25.31	17.03	23.03	0.12	731.25	353.41	53676
2012	209	27.54	16.80	24.59	0.86	1195.00	473.37	53530
2012	210	29.76	15.93	25.96	0.00	1484.67	500.59	53382
2012	211	31.84	16.83	27.71	0.04	797.14	384.94	53230
2012	212	29.74	16.94	26.22	2.12	1102.14	448.25	53076
2012	213	25.08	15.06	22.32	0.03	1115.00	379.65	52920
2012	214	26.69	15.35	23.57	0.00	1684.29	543.52	52761
2012	215	29.36	13.91	25.11	0.00	1782.14	506.98	52600
2012	216	31.27	14.28	26.60	0.00	965.71	394.88	52437
2012	217	29.15	16.19	25.59	0.34	1222.14	483.69	52271
2012	218	30.39	17.21	26.77	0.00	1702.86	484.93	52103
2012	219	33.61	17.37	29.14	0.00	2585.00	467.95	51934
2012	220	34.47	18.31	30.03	0.00	1399.29	354.81	51762
2012	221	29.67	19.09	26.76	0.01	1004.29	312.55	51588
2012	222	25.13	15.54	22.49	0.00	900.71	264.52	51413
2012	223	25.50	13.54	22.21	0.04	980.71	381.71	51235
2012	224	24.55	11.94	21.08	0.01	563.57	206.84	51057
2012	225	20.14	12.94	18.16	0.09	963.57	394.26	50876
2012	226	22.88	8.72	18.99	0.00	1070.71	342.83	50694
2012	227	24.19	10.00	20.29	0.00	1378.57	447.53	50510
2012	228	25.29	12.18	21.68	0.00	1665.00	431.11	50325
2012	229	28.63	11.44	23.90	0.00	1725.71	422.19	50138
2012	230	29.15	13.65	24.89	0.00	1430.71	449.13	49951
2012	231	28.45	17.52	25.44	0.00	1616.43	447.88	49761
2012	232	29.36	14.84	25.37	0.00	2080.71	443.73	49571
2012	233	31.75	13.31	26.68	0.00	2562.14	492.84	49380
2012	234	34.18	13.17	28.40	0.00	1847.86	385.24	49187
2012	235	32.74	14.47	27.72	0.00	2380.71	393.59	48993
2012	236	35.35	16.54	30.18	0.00	1780.00	353.99	48798
2012	237	31.64	19.14	28.20	0.00	2552.14	436.46	48603
2012	238	35.68	16.67	30.45	0.26	2142.86	435.27	48406
2012	239	32.67	18.16	28.68	0.00	889.23	260.96	48208
2012	240	26.99	14.38	23.52	0.17	1260.71	251.35	48010
2012	241	23.87	11.67	20.52	0.00	1041.13	335.27	47811
2012	242	27.30	8.33	22.08	0.00	1559.64	426.95	47611
2012	243	29.30	12.47	24.67	0.00	1659.41	389.93	47410
2012	244	31.04	12.01	25.81	0.00	1919.43	406.96	47209
2012	245	24.59	14.20	21.73	0.25	981.42	208.64	47007
2012	246	17.42	13.37	16.31	0.51	319.60	93.41	46805
2012	247	25.88	14.73	22.81	0.00	1101.77	295.43	46601
2012	248	27.68	14.52	24.06	0.00	1341.27	329.41	46398
2012	249	25.39	17.33	23.17	0.00	860.32	221.62	46194
2012	250	27.58	15.61	24.29	0.00	904.62	355.86	45989
2012	251	23.51	17.18	21.77	0.00	1090.77	426.42	45784
2012	252	24.45	7.35	19.75	0.00	1680.00	437.57	45579
2012	253	28.31	9.63	23.17	0.00	1640.77	427.25	45373
2012	254	29.17	10.68	24.09	0.00	1851.54	413.92	45167
2012	255	29.80	11.40	24.74	0.00	1854.62	401.62	44961
2012	256	30.71	11.43	25.41	0.00	1316.92	289.21	44755
2012	257	27.58	13.19	23.62	2.28	188.33	84.77	44548
2012	258	17.56	8.21	14.99	0.69	610.83	138.17	44341
2012	259	15.36	10.43	14.00	0.00	837.50	219.45	44134
2012	260	21.56	11.17	18.70	0.00	810.00	314.80	43927
2012	261	20.61	9.40	17.53	0.00	767.50	410.85	43719
2012	262	22.99	7.07	18.61	0.00	843.33	410.39	43512
2012	263	24.63	9.61	20.50	0.00	496.67	221.20	43304
2012	264	22.01	10.71	18.90	0.47	838.33	363.11	43097
2012	265	17.07	9.01	14.85	0.00	815.00	398.98	42890
2012	266	18.66	2.21	14.14	0.00	910.83	357.29	42682
2012	267	22.41	6.72	18.10	0.00	800.00	356.06	42475
2012	268	20.78	10.46	17.94	0.00	1040.83	344.73	42268
2012	269	25.77	11.32	21.80	2.93	875.83	398.57	42060
2012	270	23.70	12.50	20.62	0.00	1120.00	307.04	41854
2012	271	25.21	14.97	22.39	0.00	895.83	184.45	41647
2012	272	24.67	13.56	21.61	0.00	765.83	347.44	41440
2012	273	20.51	9.39	17.45	0.00	422.50	190.77	41234
2012	274	21.65	11.88	18.96	0.01	688.33	240.16	41028
2012	275	19.67	13.20	17.89	0.05	570.00	287.82	40822
2012	276	23.97	12.41	20.79	0.59	216.36	73.87	40617
2012	277	17.71	13.17	16.46	0.71	368.18	292.31	40412
2012	278	21.16	9.04	17.83	0.00	579.09	325.12	40208
2012	279	22.47	7.13	18.25	0.00	647.27	294.31	40003
2012	280	19.67	9.36	16.83	0.00	634.55	333.10	39800
2012	281	22.92	7.73	18.74	0.00	458.18	252.17	39597
2012	282	21.84	10.25	18.65	0.35	555.45	321.67	39394
2012	283	15.53	5.43	12.75	0.00	553.64	264.16	39192
2012	284	16.55	3.62	12.99	0.00	280.91	54.86	38991
2012	285	12.13	7.28	10.80	0.28	282.73	217.62	38790
2012	286	14.03	4.33	11.36	0.00	200.91	74.18	38590
2012	287	12.75	7.68	11.36	0.01	217.27	107.18	38391
2012	288	13.37	9.14	12.21	0.30	164.55	147.69	38193
2012	289	13.61	8.44	12.19	0.00	475.45	275.56	37995
2012	290	20.92	10.70	18.11	1.20	60.91	58.00	37799
2012	291	14.69	6.69	12.49	1.21	175.45	238.74	37603
2012	292	16.68	3.94	13.18	0.00	530.91	290.76	37408
2012	293	20.12	7.78	16.73	0.00	532.73	317.93	37214
2012	294	20.81	6.08	16.76	0.00	193.64	231.93	37022
2012	295	16.51	4.37	13.17	0.00	168.18	223.71	36830
2012	296	17.34	3.74	13.60	0.00	333.64	279.10	36640
2012	297	18.41	4.41	14.56	0.00	19.09	95.36	36451
2012	298	12.40	4.11	10.12	0.01	72.73	38.39	36263
2012	299	10.53	8.18	9.88	0.01	104.55	40.46	36076
2012	300	9.65	7.02	8.93	0.00	82.73	58.65	35891
2012	301	9.67	5.36	8.48	1.48	101.00	129.85	35707
2012	302	15.70	6.16	13.08	2.12	227.00	76.00	35525
2012	303	6.21	0.28	4.58	0.86	116.00	176.39	35345
2012	304	3.25	-0.31	2.27	0.01	239.00	290.72	35166
2012	305	7.23	-2.97	4.43	0.00	319.00	300.60	34988
2012	306	12.29	-2.06	8.34	0.62	20.00	29.77	34813
2012	307	7.68	4.09	6.69	0.28	165.00	130.41	34639
2012	308	10.04	2.72	8.03	0.05	381.00	237.64	34468
2012	309	15.67	2.02	11.92	0.00	610.00	194.88	34298
2012	310	18.51	8.93	15.88	0.59	58.89	44.20	34130
2012	311	16.02	6.63	13.44	2.74	221.11	139.71	33964
2012	312	9.91	1.58	7.62	0.00	385.56	198.12	33801
2012	313	11.14	-0.03	8.07	0.00	494.44	254.81	33640
2012	314	13.20	1.87	10.08	0.00	275.56	213.67	33481
2012	315	12.59	1.69	9.59	0.00	302.22	132.48	33325
2012	316	11.43	0.74	8.49	0.00	245.56	139.57	33171
2012	317	12.39	4.24	10.15	0.19	58.89	31.17	33019
2012	318	10.67	6.95	9.65	0.64	218.89	89.64	32871
2012	319	11.94	8.39	10.96	0.00	248.89	133.77	32725
2012	320	9.79	2.05	7.66	0.00	194.44	193.30	32582
2012	321	8.82	0.82	6.62	0.00	167.78	61.91	32441
2012	322	7.89	4.05	6.83	0.00	170.00	103.17	32304
2012	323	9.10	5.07	7.99	0.00	20.00	45.89	32170
2012	324	9.12	4.74	7.92	0.06	15.56	35.03	32039
2012	325	8.02	6.17	7.51	0.01	16.67	138.25	31911
2012	326	7.82	2.87	6.46	0.01	36.67	38.40	31786
2012	327	8.44	5.44	7.61	0.05	46.67	38.61	31665
2012	328	8.20	6.46	7.72	0.07	48.89	44.05	31547
2012	329	8.39	5.90	7.71	0.00	111.11	87.83	31433
2012	330	10.51	6.74	9.47	0.00	87.78	38.61	31322
2012	331	8.90	4.78	7.77	0.00	65.56	81.74	31215
2012	332	11.48	4.09	9.45	0.00	566.67	99.03	31112
2012	333	14.55	7.96	12.74	0.00	572.22	144.53	31012
2012	334	16.43	9.07	14.41	0.23	275.56	120.14	30917
2012	335	12.79	6.47	11.05	0.47	265.56	68.04	30825
2012	336	6.41	2.74	5.40	0.00	195.56	90.03	30738
2012	337	4.51	-0.22	3.21	0.00	50.00	41.12	30654
2012	338	2.35	-0.31	1.62	0.23	236.67	168.11	30575
2012	339	4.53	-0.92	3.03	0.00	143.33	56.47	30500
2012	340	3.17	-2.96	1.48	0.16	95.56	95.72	30430
2012	341	5.26	-0.91	3.56	0.00	14.44	59.37	30363
2012	342	1.64	-3.75	0.16	0.00	145.56	139.76	30301
2012	343	1.20	-5.70	-0.70	0.32	76.67	52.38	30244
2012	344	-1.58	-5.22	-2.58	0.19	271.11	200.32	30191
2012	345	1.29	-6.46	-0.84	0.00	205.56	167.93	30143
2012	346	1.07	-7.85	-1.38	0.00	140.00	124.85	30099
2012	347	1.54	-8.01	-1.09	0.00	224.44	194.55	30060
2012	348	-0.34	-7.37	-2.27	0.00	152.50	198.89	30025
2012	349	-1.05	-11.64	-3.96	0.00	202.50	67.58	29995
2012	350	4.21	-7.28	1.05	0.02	228.75	39.19	29970
2012	351	8.29	1.90	6.53	0.52	10.00	85.41	29950
2012	352	5.83	0.80	4.45	0.00	10.00	28.95	29934
2012	353	3.73	1.53	3.13	0.01	11.25	38.55	29924
2012	354	2.64	0.73	2.11	0.28	87.50	67.10	29918
2012	355	4.51	0.56	3.42	0.02	98.75	74.43	29916
2012	356	4.33	0.24	3.21	0.00	17.50	29.00	29920
2012	357	1.11	-2.34	0.16	0.03	33.75	46.93	29928
2012	358	0.90	-1.09	0.35	0.02	51.25	41.31	29941
2012	359	0.80	-1.24	0.24	0.03	215.00	171.64	29959
2012	360	9.46	-0.60	6.69	0.00	372.50	82.55	29982
2012	361	10.88	0.28	7.96	0.00	82.50	32.34	30009
2012	362	10.49	2.18	8.20	0.87	217.50	161.03	30042
2012	363	8.83	0.41	6.51	0.11	152.50	50.92	30078
2012	364	7.06	1.42	5.51	0.00	152.50	170.07	30120
2012	365	3.70	-4.38	1.48	0.00	142.50	185.00	30166
2013	1	6.59	-4.73	3.48	0.00	63.75	172.69	30217
2013	2	2.37	-3.11	0.86	0.00	12.50	41.30	30272
2013	3	-0.28	-3.23	-1.09	0.00	200.00	124.23	30331
2013	4	6.92	-1.95	4.48	0.01	333.75	116.26	30396
2013	5	10.31	0.57	7.63	0.40	378.75	69.14	30464
2013	6	10.97	3.94	9.04	0.08	77.50	33.14	30537
2013	7	7.16	2.71	5.94	0.88	28.75	57.31	30614
2013	8	5.72	-0.85	3.91	0.30	28.75	42.76	30695
2013	9	0.12	-1.99	-0.46	0.28	36.25	53.03	30781
2013	10	4.67	-0.21	3.33	0.03	31.25	59.58	30870
2013	11	3.82	1.43	3.16	0.00	57.50	63.57	30964
2013	12	3.40	-1.03	2.18	0.00	213.33	128.34	31061
2013	13	1.60	-5.33	-0.31	0.00	37.78	62.33	31162
2013	14	-0.96	-2.99	-1.52	1.78	20.00	51.45	31268
2013	15	-1.52	-3.41	-2.04	1.07	32.22	92.46	31376
2013	16	0.33	-2.58	-0.47	0.04	86.67	112.82	31489
2013	17	0.22	-1.89	-0.36	1.23	47.78	80.72	31605
2013	18	-0.28	-1.62	-0.65	0.24	37.78	66.94	31724
2013	19	-1.14	-3.88	-1.89	0.35	98.89	71.99	31847
2013	20	-1.91	-4.58	-2.64	0.00	83.00	125.07	31974
2013	21	3.43	-4.71	1.19	0.05	15.00	70.98	32103
2013	22	4.41	-0.91	2.95	0.87	34.00	73.66	32236
2013	23	0.85	-0.98	0.35	0.35	10.00	64.51	32372
2013	24	0.34	-1.75	-0.23	0.00	10.00	34.98	32510
2013	25	-0.35	-1.94	-0.79	0.07	119.00	177.03	32652
2013	26	-0.73	-5.21	-1.96	0.00	106.00	181.89	32797
2013	27	-3.16	-9.83	-4.99	0.00	100.00	171.05	32944
2013	28	-1.52	-13.28	-4.75	0.00	46.00	85.69	33094
2013	29	-0.33	-3.59	-1.23	0.30	64.00	95.75	33247
2013	30	2.47	-5.47	0.29	0.14	313.00	204.34	33402
2013	31	8.44	0.30	6.20	0.00	880.00	258.66	33559
2013	32	8.44	0.05	6.13	0.00	491.00	133.99	33719
2013	33	6.77	2.70	5.65	1.88	74.00	20.72	33882
2013	34	5.15	0.40	3.84	0.00	429.00	179.25	34046
2013	35	4.49	-2.68	2.52	0.00	317.00	93.96	34213
2013	36	6.42	0.05	4.67	0.26	270.00	65.81	34382
2013	37	3.78	-0.68	2.55	0.23	21.00	64.71	34552
2013	38	5.15	-1.39	3.35	0.00	284.00	278.58	34725
2013	39	3.29	-3.69	1.37	0.00	238.00	248.28	34900
2013	40	0.43	-2.35	-0.33	0.17	209.00	138.66	35076
2013	41	-0.73	-3.34	-1.45	0.21	66.00	117.41	35254
2013	42	1.23	-8.44	-1.43	0.48	188.00	221.38	35434
2013	43	-0.03	-3.22	-0.91	0.61	27.00	100.01	35615
2013	44	-0.31	-1.78	-0.71	0.58	52.00	83.19	35798
2013	45	0.62	-1.44	0.05	0.43	82.00	106.86	35983
2013	46	3.38	-1.18	2.13	0.00	108.00	166.44	36169
2013	47	4.82	-1.09	3.19	0.00	214.00	258.11	36356
2013	48	4.19	-0.74	2.83	0.00	153.00	157.98	36544
2013	49	4.43	-0.78	3.00	0.00	185.00	205.28	36734
2013	50	5.23	-1.68	3.33	0.00	257.00	237.83	36925
2013	51	3.78	-1.36	2.37	0.01	276.00	168.58	37117
2013	52	0.97	-5.01	-0.67	0.26	203.00	282.07	37310
2013	53	-1.54	-5.46	-2.62	1.46	77.00	160.78	37505
2013	54	1.60	-3.94	0.08	1.31	50.91	149.42	37700
2013	55	2.88	-0.94	1.83	0.27	10.00	90.93	37896
2013	56	4.16	0.74	3.22	2.29	30.91	168.99	38093
2013	57	3.73	1.09	3.00	0.51	22.73	47.84	38291
2013	58	4.78	1.24	3.81	0.05	149.09	62.78	38490
2013	59	-0.84	-3.05	-1.45	0.10	223.64	233.39	38689
2013	60	8.75	2.15	6.94	0.00	45.45	83.30	38890
2013	61	4.76	-1.11	3.15	0.00	373.64	371.38	39091
2013	62	6.74	-0.27	4.81	0.00	430.00	389.12	39292
2013	63	9.90	-3.68	6.17	0.00	385.83	379.38	39495
2013	64	8.21	-1.35	5.58	0.00	480.83	364.56	39697
2013	65	10.87	-2.07	7.31	0.00	480.83	213.26	39901
2013	66	13.64	4.29	11.07	0.00	495.83	310.07	40105
2013	67	16.83	7.96	14.39	0.00	569.17	294.94	40309
2013	68	18.13	6.44	14.92	0.00	292.50	242.51	40514
2013	69	14.15	5.30	11.72	0.67	53.33	81.72	40719
2013	70	10.64	7.65	9.82	0.55	290.00	303.47	40924
2013	71	13.90	1.03	10.36	0.01	188.33	151.16	41130
2013	72	8.66	2.09	6.85	0.01	274.17	192.22	41336
2013	73	9.59	2.92	7.76	0.21	130.83	85.29	41543
2013	74	7.06	-2.73	4.37	0.07	353.33	235.40	41749
2013	75	1.10	-2.86	0.01	0.00	336.67	313.14	41956
2013	76	2.89	-4.14	0.96	0.00	360.83	310.00	42163
2013	77	4.62	-5.16	1.93	0.00	130.83	74.61	42370
2013	78	3.62	0.21	2.68	1.05	484.17	258.32	42578
2013	79	12.75	1.61	9.69	0.00	560.42	291.29	42785
2013	80	14.01	-1.29	9.80	0.03	509.17	215.76	42992
2013	81	10.33	4.87	8.83	0.00	391.67	457.61	43200
2013	82	7.33	-1.28	4.96	0.00	200.83	207.28	43407
2013	83	1.99	-2.62	0.72	0.04	68.33	124.35	43615
2013	84	0.43	-4.02	-0.79	0.41	61.67	106.98	43822
2013	85	-2.26	-4.19	-2.79	0.89	72.50	136.87	44029
2013	86	-2.34	-4.32	-2.88	0.40	222.50	396.18	44236
2013	87	2.66	-5.03	0.55	0.00	264.17	457.91	44443
2013	88	5.82	-6.60	2.40	0.13	27.50	58.42	44650
2013	89	3.44	1.39	2.88	0.82	60.83	107.53	44857
2013	90	5.23	1.43	4.19	3.21	57.50	70.49	45063
2013	91	4.34	0.30	3.23	0.94	181.67	168.67	45270
2013	92	4.22	-0.49	2.92	0.06	14.17	59.33	45475
2013	93	2.86	0.30	2.16	2.25	86.92	113.44	45681
2013	94	2.08	-0.25	1.44	0.30	283.08	323.02	45886
2013	95	9.00	0.33	6.62	0.00	85.38	114.58	46091
2013	96	6.55	2.08	5.32	0.12	247.69	217.35	46295
2013	97	7.47	3.01	6.24	0.00	217.86	244.22	46499
2013	98	7.21	2.23	5.84	0.00	425.71	466.02	46702
2013	99	10.32	-0.97	7.22	0.00	481.43	390.59	46905
2013	100	14.49	1.84	11.01	0.00	479.29	277.02	47107
2013	101	15.36	5.56	12.66	0.11	625.71	390.84	47309
2013	102	17.73	2.42	13.52	0.00	611.43	341.18	47510
2013	103	18.90	8.89	16.15	0.55	742.14	360.73	47710
2013	104	17.72	5.49	14.36	0.00	886.43	476.88	47910
2013	105	18.95	5.19	15.17	0.00	970.00	492.22	48108
2013	106	18.43	5.56	14.89	0.00	1100.00	518.62	48306
2013	107	19.41	4.08	15.19	0.00	931.43	313.59	48504
2013	108	22.02	5.50	17.48	0.00	1241.43	444.88	48700
2013	109	24.16	7.88	19.68	0.00	921.43	405.65	48895
2013	110	22.70	9.63	19.11	0.00	437.14	309.51	49089
2013	111	17.83	9.46	15.53	0.00	740.71	447.18	49282
2013	112	20.86	7.04	17.06	0.01	721.43	333.79	49475
2013	113	21.39	9.27	18.06	0.71	663.57	350.89	49666
2013	114	20.81	8.41	17.40	0.00	1303.57	513.77	49855
2013	115	23.45	6.54	18.80	0.00	1363.57	485.21	50044
2013	116	25.44	7.19	20.42	0.00	1633.57	486.35	50231
2013	117	26.89	9.31	22.06	0.00	1006.43	308.70	50417
2013	118	23.14	14.46	20.75	0.00	1101.43	487.96	50601
2013	119	24.53	12.94	21.34	0.00	1193.57	403.46	50784
2013	120	25.26	11.12	21.37	0.00	1267.86	431.24	50966
2013	121	26.99	11.39	22.70	0.00	1045.00	457.20	51145
2013	122	26.20	12.49	22.43	0.05	349.29	211.94	51324
2013	123	21.38	14.84	19.58	0.73	480.71	356.03	51500
2013	124	22.62	12.76	19.91	0.04	567.86	318.97	51674
2013	125	21.37	9.60	18.13	0.01	368.57	170.15	51847
2013	126	18.16	12.29	16.55	0.74	282.00	208.36	52018
2013	127	20.64	12.93	18.52	0.03	595.33	374.15	52187
2013	128	22.66	14.12	20.31	0.00	690.67	414.18	52353
2013	129	22.64	11.68	19.63	0.02	970.00	404.19	52518
2013	130	24.47	10.82	20.72	0.01	1070.67	469.60	52680
2013	131	24.64	8.99	20.34	0.49	240.67	131.74	52840
2013	132	18.14	11.99	16.45	0.40	698.67	400.24	52998
2013	133	18.38	10.73	16.28	0.00	934.67	474.95	53153
2013	134	17.97	8.49	15.36	0.03	636.11	264.87	53306
2013	135	20.50	7.38	16.89	0.00	1096.00	556.58	53456
2013	136	23.16	6.99	18.71	0.00	862.67	383.97	53603
2013	137	23.82	11.04	20.31	0.02	276.67	228.83	53748
2013	138	20.77	11.12	18.12	1.14	996.67	553.51	53889
2013	139	22.11	10.48	18.91	0.00	1209.33	488.86	54028
2013	140	25.91	10.09	21.56	0.32	708.67	423.06	54164
2013	141	20.81	10.10	17.86	0.20	969.33	484.49	54297
2013	142	21.24	8.75	17.81	0.00	652.67	432.61	54426
2013	143	19.33	7.09	15.96	0.49	601.88	356.93	54552
2013	144	15.98	8.70	13.98	0.00	721.88	393.92	54675
2013	145	15.80	7.32	13.47	0.00	280.00	215.62	54795
2013	146	14.26	8.05	12.55	0.62	561.25	355.26	54911
2013	147	16.57	7.78	14.15	0.25	290.00	197.47	55023
2013	148	15.37	7.28	13.15	0.11	592.50	397.34	55132
2013	149	20.45	7.97	17.02	0.00	923.75	397.61	55237
2013	150	23.22	9.83	19.54	0.01	143.75	68.96	55339
2013	151	18.41	9.36	15.92	1.60	210.62	176.90	55436
2013	152	13.08	8.04	11.69	0.30	196.87	217.67	55530
2013	153	16.53	8.10	14.21	0.87	155.63	189.13	55619
2013	154	15.87	8.61	13.87	0.44	508.75	253.96	55705
2013	155	17.87	8.57	15.31	0.03	298.13	106.68	55786
2013	156	16.56	9.80	14.70	0.27	303.75	203.37	55863
2013	157	18.18	12.15	16.52	0.05	523.75	372.95	55936
2013	158	20.88	10.33	17.98	0.00	643.75	466.46	56004
2013	159	23.07	11.95	20.01	0.00	880.63	456.02	56068
2013	160	25.88	12.58	22.22	0.17	1120.00	474.35	56128
2013	161	26.99	12.25	22.94	0.00	886.88	409.69	56183
2013	162	24.48	14.70	21.79	0.47	248.75	183.45	56234
2013	163	18.78	13.21	17.25	0.58	1026.88	450.34	56280
2013	164	22.60	10.08	19.16	0.00	1295.00	426.50	56321
2013	165	25.28	11.30	21.44	0.00	1157.50	516.04	56358
2013	166	25.52	11.51	21.67	0.00	1298.75	473.30	56390
2013	167	27.99	12.76	23.80	0.00	1220.00	370.22	56418
2013	168	28.82	16.35	25.39	0.00	1546.25	488.57	56440
2013	169	31.40	17.02	27.45	0.00	1706.25	486.18	56458
2013	170	32.39	17.80	28.38	0.00	1653.75	481.24	56472
2013	171	33.08	18.48	29.07	0.00	1667.50	469.96	56480
2013	172	33.35	19.65	29.58	0.00	2202.50	512.53	56484
2013	173	32.09	19.77	28.70	0.00	1278.75	465.01	56482
2013	174	29.83	17.09	26.33	0.35	1165.63	450.76	56476
2013	175	27.73	16.75	24.71	0.12	201.25	67.52	56466
2013	176	22.27	11.96	19.43	1.98	516.88	182.02	56450
2013	177	18.08	12.05	16.42	0.00	703.75	323.38	56430
2013	178	19.33	8.44	16.34	0.00	898.75	535.53	56405
2013	179	18.91	6.25	15.43	0.00	843.13	404.95	56375
2013	180	20.38	6.66	16.61	0.00	984.37	425.68	56341
2013	181	22.33	9.12	18.70	0.00	958.13	471.17	56301
2013	182	22.24	10.18	18.92	0.01	1183.75	504.25	56258
2013	183	23.98	7.91	19.56	0.00	1185.00	497.05	56209
2013	184	26.88	10.58	22.40	0.00	1541.25	464.80	56156
2013	185	27.95	12.08	23.59	0.00	1308.13	496.71	56099
2013	186	28.30	13.98	24.36	0.00	1379.38	492.35	56037
2013	187	28.13	15.91	24.77	0.11	941.88	468.11	55971
2013	188	26.89	17.76	24.38	0.18	1103.75	472.00	55900
2013	189	27.65	17.19	24.77	0.01	1376.87	499.54	55825
2013	190	27.06	16.93	24.27	0.00	1496.25	488.63	55746
2013	191	28.29	15.55	24.79	0.00	1655.00	463.36	55663
2013	192	28.96	14.59	25.01	0.02	572.50	212.82	55575
2013	193	24.64	15.57	22.15	0.24	1206.88	448.15	55484
2013	194	24.57	10.24	20.63	0.00	1177.50	351.58	55388
2013	195	25.33	11.57	21.55	0.00	1480.63	457.60	55289
2013	196	26.31	12.86	22.61	0.00	1001.25	380.92	55186
2013	197	26.30	13.67	22.83	0.57	1266.88	461.33	55079
2013	198	25.74	12.03	21.97	0.00	1660.00	511.00	54968
2013	199	28.33	11.28	23.64	0.00	1818.13	448.59	54854
2013	200	29.57	12.80	24.96	0.00	1730.63	412.32	54736
2013	201	30.31	14.24	25.89	0.00	1665.00	464.40	54615
2013	202	29.41	16.21	25.78	0.00	1601.25	509.58	54490
2013	203	27.25	14.72	23.80	0.00	1885.00	509.65	54362
2013	204	29.87	11.70	24.87	0.00	2279.38	498.04	54231
2013	205	32.02	13.80	27.01	0.00	1893.75	441.45	54097
2013	206	32.02	15.44	27.46	0.00	1449.37	352.91	53960
2013	207	29.83	17.02	26.31	0.00	1946.25	408.55	53819
2013	208	32.97	16.28	28.38	0.00	2231.88	459.52	53676
2013	209	34.40	18.16	29.93	0.00	2060.00	466.42	53530
2013	210	35.43	19.18	30.96	0.00	3151.33	480.67	53382
2013	211	37.40	20.94	32.87	0.00	1683.57	361.49	53230
2013	212	28.59	18.56	25.83	0.00	1755.00	384.44	53076
2013	213	29.53	13.39	25.09	0.00	1921.43	507.29	52920
2013	214	30.60	14.77	26.25	0.00	2355.00	508.06	52761
2013	215	33.99	14.40	28.60	0.00	2690.00	489.46	52600
2013	216	35.96	16.72	30.67	0.00	2891.43	466.00	52437
2013	217	35.94	18.30	31.09	0.04	1829.29	500.23	52271
2013	218	33.01	17.39	28.71	0.00	2780.00	472.57	52103
2013	219	36.02	18.11	31.09	0.00	2815.00	469.56	51934
2013	220	36.02	19.99	31.61	0.00	3570.00	467.60	51762
2013	221	38.78	18.74	33.27	0.00	2026.43	445.09	51588
2013	222	34.07	19.91	30.18	1.19	1055.00	258.16	51413
2013	223	25.80	16.71	23.30	0.00	1623.57	481.69	51235
2013	224	28.33	12.32	23.93	0.00	1756.43	390.84	51057
2013	225	29.57	16.23	25.90	0.00	1336.43	422.28	50876
2013	226	28.86	14.43	24.89	0.33	304.29	89.99	50694
2013	227	18.85	15.56	17.95	0.10	1404.29	510.44	50510
2013	228	24.66	12.07	21.20	0.00	1632.14	482.65	50325
2013	229	26.71	8.83	21.79	0.00	1859.29	483.31	50138
2013	230	29.07	10.24	23.89	0.00	2010.00	471.28	49951
2013	231	31.22	12.36	26.03	0.00	2069.29	427.01	49761
2013	232	31.95	14.47	27.14	0.01	1014.29	291.26	49571
2013	233	24.31	17.31	22.38	0.09	1122.86	372.70	49380
2013	234	23.90	16.03	21.74	0.00	1352.14	424.47	49187
2013	235	25.20	13.35	21.94	0.00	1265.00	356.65	48993
2013	236	26.71	11.96	22.65	0.54	212.14	124.83	48798
2013	237	21.25	15.18	19.58	0.67	138.57	119.06	48603
2013	238	18.47	11.85	16.65	0.26	328.57	178.56	48406
2013	239	20.80	14.03	18.94	0.21	397.14	209.94	48208
2013	240	22.80	14.66	20.56	1.10	335.71	229.25	48010
2013	241	20.70	15.15	19.17	0.01	1169.29	477.02	47811
2013	242	23.65	13.62	20.89	0.00	1246.43	452.51	47611
2013	243	24.13	10.02	20.25	0.00	1360.71	395.76	47410
2013	244	26.04	9.43	21.47	0.00	590.00	219.45	47209
2013	245	23.82	12.26	20.64	0.15	749.29	365.04	47007
2013	246	20.85	9.91	17.84	0.00	1174.62	245.75	46805
2013	247	23.80	14.35	21.20	0.00	763.08	298.94	46601
2013	248	24.25	13.32	21.24	0.00	899.23	269.71	46398
2013	249	24.96	14.11	21.98	0.00	1157.69	397.66	46194
2013	250	25.42	13.89	22.25	0.00	1320.77	419.42	45989
2013	251	25.75	11.15	21.73	0.00	1581.54	408.25	45784
2013	252	26.29	10.18	21.86	0.01	274.62	107.52	45579
2013	253	19.40	13.28	17.72	0.85	470.00	272.55	45373
2013	254	21.54	13.73	19.39	2.70	497.69	267.17	45167
2013	255	17.82	10.71	15.86	0.07	637.69	345.66	44961
2013	256	18.94	10.44	16.60	0.49	437.69	335.40	44755
2013	257	17.46	7.98	14.85	0.06	812.50	160.35	44548
2013	258	20.41	10.14	17.59	0.02	627.50	286.93	44341
2013	259	22.29	9.05	18.65	0.00	695.83	339.77	44134
2013	260	23.12	10.48	19.64	1.35	155.00	105.67	43927
2013	261	16.97	8.54	14.65	0.80	334.17	162.99	43719
2013	262	16.04	4.96	12.99	0.15	640.00	302.45	43512
2013	263	17.73	10.42	15.72	0.00	686.67	322.44	43304
2013	264	19.81	6.47	16.14	0.01	768.33	254.33	43097
2013	265	19.33	10.41	16.88	0.00	716.67	378.93	42890
2013	266	18.81	9.15	16.15	0.00	859.17	383.94	42682
2013	267	22.29	7.38	18.19	0.00	783.33	410.78	42475
2013	268	21.77	7.92	17.96	0.00	566.67	381.10	42268
2013	269	21.07	7.77	17.41	0.00	581.67	221.60	42060
2013	270	22.59	10.88	19.37	0.18	221.67	71.12	41854
2013	271	16.31	9.54	14.45	0.06	397.50	146.97	41647
2013	272	14.17	7.58	12.36	0.01	80.83	41.93	41440
2013	273	11.87	8.31	10.89	2.65	46.67	50.10	41234
2013	274	9.21	7.36	8.70	0.89	465.83	326.50	41028
2013	275	15.44	7.43	13.24	0.00	411.67	262.31	40822
2013	276	12.16	4.93	10.17	0.00	477.27	323.06	40617
2013	277	11.09	-0.42	7.92	0.00	487.27	369.20	40412
2013	278	11.78	-1.30	8.18	0.00	389.09	143.03	40208
2013	279	10.76	-0.85	7.57	0.02	102.73	100.48	40003
2013	280	12.18	7.44	10.88	0.08	375.45	254.93	39800
2013	281	16.57	9.18	14.54	0.00	794.55	367.39	39597
2013	282	19.06	5.15	15.23	0.00	513.64	187.73	39394
2013	283	17.09	8.81	14.81	0.04	282.73	191.01	39192
2013	284	18.54	11.15	16.51	0.01	265.45	126.90	38991
2013	285	18.86	10.34	16.52	0.54	297.27	282.54	38790
2013	286	18.22	8.07	15.43	0.37	354.55	282.15	38590
2013	287	18.17	9.42	15.76	0.00	396.36	323.29	38391
2013	288	17.16	5.50	13.95	0.00	237.27	266.57	38193
2013	289	17.30	7.08	14.49	0.23	346.36	173.72	37995
2013	290	13.62	8.03	12.08	0.11	752.73	337.23	37799
2013	291	17.08	5.74	13.96	0.00	571.82	279.11	37603
2013	292	17.80	4.27	14.08	0.01	531.82	323.35	37408
2013	293	16.87	3.16	13.10	0.00	506.36	284.10	37214
2013	294	20.88	7.21	17.12	0.00	619.09	245.54	37022
2013	295	22.49	10.61	19.22	0.00	580.00	252.11	36830
2013	296	21.31	8.49	17.78	0.00	978.18	293.49	36640
2013	297	24.02	12.43	20.83	0.00	576.36	178.83	36451
2013	298	20.29	12.64	18.19	0.00	591.82	273.91	36263
2013	299	22.10	8.08	18.24	0.00	1016.75	251.81	36076
2013	300	20.10	8.59	16.93	0.00	812.62	229.78	35891
2013	301	20.95	7.90	17.36	0.00	916.53	238.12	35707
2013	302	23.05	11.64	19.91	0.00	955.60	213.55	35525
2013	303	19.16	9.35	16.46	0.73	696.78	146.68	35345
2013	304	13.06	8.36	11.77	0.00	281.64	106.71	35166
2013	305	14.70	3.33	11.57	0.00	587.41	213.48	34988
2013	306	16.06	5.24	13.08	0.00	618.58	201.12	34813
2013	307	16.75	5.31	13.60	0.00	666.13	204.73	34639
2013	308	18.31	8.12	15.51	1.62	679.90	139.81	34468
2013	309	10.74	7.83	9.94	0.95	84.00	39.35	34298
2013	310	11.07	7.32	10.04	1.26	123.33	114.54	34130
2013	311	10.73	2.49	8.46	0.01	344.44	230.55	33964
2013	312	15.71	5.94	13.02	0.00	285.56	219.23	33801
2013	313	16.82	3.70	13.21	0.00	165.56	26.75	33640
2013	314	14.19	7.10	12.24	2.74	110.00	87.69	33481
2013	315	9.55	4.80	8.24	1.17	215.56	49.26	33325
2013	316	8.54	4.82	7.52	0.21	282.22	105.75	33171
2013	317	8.53	4.74	7.49	0.00	117.78	26.01	33019
2013	318	7.61	5.89	7.14	0.19	155.56	81.10	32871
2013	319	7.32	3.10	6.16	0.20	47.78	28.37	32725
2013	320	6.97	4.35	6.25	0.00	60.00	169.73	32582
2013	321	10.44	0.62	7.74	0.00	92.22	191.61	32441
2013	322	10.11	0.16	7.37	0.00	106.67	86.60	32304
2013	323	7.75	3.56	6.60	0.00	73.33	54.52	32170
2013	324	7.54	4.81	6.79	0.39	16.67	26.81	32039
2013	325	7.76	6.03	7.28	0.99	15.56	42.27	31911
2013	326	7.89	3.88	6.79	0.19	45.56	37.14	31786
2013	327	7.15	4.95	6.55	0.86	46.67	53.90	31665
2013	328	8.91	5.83	8.06	2.29	28.89	29.67	31547
2013	329	8.00	6.13	7.49	1.69	300.00	59.40	31433
2013	330	6.29	0.47	4.69	0.00	235.56	201.90	31322
2013	331	2.78	-0.37	1.91	0.01	216.67	151.52	31215
2013	332	2.55	-1.29	1.49	0.00	284.44	241.36	31112
2013	333	4.01	-5.33	1.44	0.00	364.44	189.40	31012
2013	334	7.64	-3.49	4.58	0.00	168.89	106.08	30917
2013	335	5.51	-1.01	3.72	0.00	217.78	231.55	30825
2013	336	6.89	-3.57	4.01	0.00	223.33	169.72	30738
2013	337	7.12	-2.90	4.36	0.00	153.33	193.61	30654
2013	338	4.84	-4.75	2.20	0.00	147.78	214.61	30575
2013	339	3.81	-4.76	1.45	0.00	130.00	155.94	30500
2013	340	4.88	-4.61	2.27	0.00	374.44	194.59	30430
2013	341	7.39	-1.27	5.01	0.00	230.00	143.76	30363
2013	342	4.63	-2.14	2.77	0.01	223.21	100.73	30301
2013	343	8.06	-0.91	5.59	0.00	337.28	153.96	30244
2013	344	7.28	-2.16	4.68	0.00	195.56	92.40	30191
2013	345	9.71	3.70	8.06	0.01	264.44	57.58	30143
2013	346	4.89	-0.25	3.48	0.00	152.22	48.16	30099
2013	347	3.59	0.25	2.67	0.00	10.00	27.05	30060
2013	348	1.79	-1.27	0.95	0.01	97.58	27.47	30025
2013	349	0.14	-1.47	-0.30	0.00	48.96	50.58	29995
2013	350	0.02	-2.01	-0.54	0.00	5.00	64.22	29970
2013	351	-0.17	-3.41	-1.06	0.00	10.00	33.81	29950
2013	352	-2.11	-3.84	-2.59	0.00	10.00	15.87	29934
2013	353	-2.26	-3.45	-2.59	0.00	6.25	82.51	29924
2013	354	-0.01	-4.72	-1.31	0.00	124.82	93.44	29918
2013	355	2.16	-2.77	0.80	0.00	149.25	115.46	29916
2013	356	4.79	-2.07	2.90	0.01	227.69	32.86	29920
2013	357	4.49	0.43	3.37	0.01	147.77	69.86	29928
2013	358	3.16	-0.10	2.26	0.00	112.58	177.49	29941
2013	359	11.86	-0.35	8.50	0.00	514.15	83.97	29959
2013	360	12.64	6.98	11.08	0.00	319.29	51.73	29982
2013	361	11.30	7.25	10.19	0.97	224.01	80.89	30009
2013	362	8.34	4.32	7.23	0.01	186.18	165.86	30042
2013	363	10.29	1.00	7.74	0.00	396.52	57.32	30078
2013	364	7.75	2.41	6.28	0.08	226.67	92.02	30120
2013	365	6.99	3.28	5.97	0.03	160.05	40.67	30166
2014	1	4.97	2.58	4.31	0.02	95.78	16.86	30217
2014	2	4.85	3.08	4.36	0.00	72.14	139.42	30272
2014	3	8.89	2.50	7.13	0.00	279.49	183.19	30331
2014	4	11.60	-0.17	8.36	0.00	495.88	96.46	30396
2014	5	8.57	-0.85	5.98	0.04	359.42	49.36	30464
2014	6	11.55	6.91	10.27	0.28	254.81	161.95	30537
2014	7	10.09	3.13	8.18	0.00	320.63	52.91	30614
2014	8	5.85	1.84	4.75	0.01	159.29	37.94	30695
2014	9	4.20	1.99	3.59	0.01	85.00	59.68	30781
2014	10	4.30	0.47	3.25	0.01	139.00	105.29	30870
2014	11	7.82	1.88	6.19	0.00	247.42	43.98	30964
2014	12	6.09	0.99	4.69	0.00	197.05	218.80	31061
2014	13	9.03	-0.42	6.43	0.00	370.68	215.94	31162
2014	14	7.58	-2.24	4.88	0.00	346.56	58.23	31268
2014	15	8.75	-0.56	6.19	0.36	360.78	126.67	31376
2014	16	7.27	2.05	5.83	0.00	216.08	157.85	31489
2014	17	8.40	-0.27	6.02	0.00	336.92	123.46	31605
2014	18	12.08	4.25	9.93	0.00	393.94	118.45	31724
2014	19	13.00	3.65	10.43	0.00	469.86	78.67	31847
2014	20	11.93	5.75	10.23	0.28	327.75	79.30	31974
2014	21	11.23	5.61	9.68	0.01	291.85	137.15	32103
2014	22	9.45	3.85	7.91	0.00	261.27	67.89	32236
2014	23	5.03	1.95	4.18	0.00	120.56	40.83	32372
2014	24	3.50	0.41	2.65	0.06	109.79	36.06	32510
2014	25	0.82	-1.63	0.15	1.18	75.23	244.67	32652
2014	26	-0.01	-5.16	-1.43	0.00	134.02	109.95	32797
2014	27	-4.27	-10.50	-5.98	0.03	116.08	98.26	32944
2014	28	-3.63	-7.73	-4.76	0.03	87.45	77.64	33094
2014	29	-1.62	-4.67	-2.46	0.18	77.85	105.80	33247
2014	30	-1.02	-3.99	-1.84	0.06	79.14	70.84	33402
2014	31	-0.90	-5.64	-2.20	0.10	118.27	74.60	33559
2014	32	-2.39	-5.23	-3.17	0.41	69.47	70.53	33719
2014	33	-0.50	-2.95	-1.17	0.89	69.03	53.81	33882
2014	34	-0.25	-3.27	-1.08	0.00	84.48	60.47	34046
2014	35	-0.80	-2.73	-1.33	0.00	54.48	48.44	34213
2014	36	0.30	-2.72	-0.53	0.00	87.58	87.02	34382
2014	37	2.16	-1.36	1.19	0.01	112.83	89.49	34552
2014	38	9.33	-2.05	6.20	0.63	422.32	215.63	34725
2014	39	7.97	2.74	6.53	0.23	226.00	89.32	34900
2014	40	9.48	1.47	7.28	1.59	341.47	49.87	35076
2014	41	7.89	-1.23	5.38	0.08	337.29	200.30	35254
2014	42	7.88	4.88	7.05	1.16	140.50	47.88	35434
2014	43	5.66	0.61	4.27	0.47	190.29	65.06	35615
2014	44	8.54	-2.84	5.41	0.63	401.74	252.58	35798
2014	45	9.76	2.95	7.89	0.00	309.21	222.83	35983
2014	46	12.15	0.38	8.91	0.00	513.00	279.15	36169
2014	47	12.31	3.46	9.88	1.79	434.59	161.49	36356
2014	48	6.00	2.42	5.02	0.62	145.99	66.02	36544
2014	49	5.67	-0.12	4.08	0.00	212.04	92.90	36734
2014	50	9.87	4.42	8.37	0.65	262.36	61.68	36925
2014	51	10.71	4.22	8.93	0.00	316.07	163.25	37117
2014	52	9.13	3.44	7.57	0.02	259.43	71.60	37310
2014	53	7.37	4.47	6.57	0.55	132.15	56.04	37505
2014	54	9.14	3.23	7.51	0.04	267.37	68.56	37700
2014	55	11.55	0.93	8.63	0.00	465.83	275.43	37896
2014	56	8.87	-0.20	6.38	0.00	357.42	221.90	38093
2014	57	12.81	-0.28	9.21	0.00	565.51	211.13	38291
2014	58	12.06	2.23	9.36	0.00	458.29	277.80	38490
2014	59	11.20	2.57	8.83	0.01	399.40	255.25	38689
2014	60	13.52	0.40	9.91	0.00	591.42	257.07	38890
2014	61	10.22	2.78	8.17	0.00	339.24	198.76	39091
2014	62	7.82	1.80	6.16	0.47	249.98	143.79	39292
2014	63	9.39	4.11	7.94	0.00	248.45	117.01	39495
2014	64	11.78	4.92	9.89	0.01	351.49	144.73	39697
2014	65	9.90	5.35	8.65	0.00	227.06	134.72	39901
2014	66	9.93	2.97	8.02	0.00	317.51	295.62	40105
2014	67	12.44	1.42	9.41	0.00	502.89	267.36	40309
2014	68	12.05	1.64	9.19	0.00	474.59	371.75	40514
2014	69	11.14	1.28	8.43	0.00	434.00	277.69	40719
2014	70	14.79	-0.86	10.49	0.00	694.34	403.36	40924
2014	71	15.34	2.04	11.68	0.00	665.27	363.22	41130
2014	72	16.07	0.25	11.72	0.00	754.21	379.56	41336
2014	73	18.76	0.18	13.65	0.00	943.12	389.20	41543
2014	74	17.10	2.54	13.10	0.00	773.22	156.71	41749
2014	75	19.50	6.29	15.87	0.00	848.32	207.60	41956
2014	76	21.50	5.76	17.17	0.00	1038.56	401.98	42163
2014	77	19.43	3.64	15.09	0.00	921.47	380.35	42370
2014	78	17.41	7.82	14.77	0.00	620.46	334.12	42578
2014	79	20.22	3.05	15.50	0.00	999.66	428.74	42785
2014	80	21.47	4.97	16.93	0.00	1058.30	404.17	42992
2014	81	19.38	7.86	16.21	0.00	779.99	356.68	43200
2014	82	15.69	10.07	14.14	0.75	379.68	151.01	43407
2014	83	12.80	3.43	10.22	0.01	464.86	216.76	43615
2014	84	10.44	-0.53	7.42	0.03	443.31	286.38	43822
2014	85	12.37	0.95	9.23	0.00	511.20	294.30	44029
2014	86	13.99	1.39	10.53	0.00	595.91	223.45	44236
2014	87	17.16	5.05	13.83	0.00	705.16	398.00	44443
2014	88	19.36	3.00	14.86	0.00	931.70	419.23	44650
2014	89	21.00	3.21	16.11	0.00	1060.98	430.87	44857
2014	90	20.26	3.90	15.76	0.00	982.48	310.10	45063
2014	91	19.52	6.62	15.97	0.00	838.54	388.54	45270
2014	92	19.99	5.24	15.93	0.00	922.96	395.24	45475
2014	93	20.36	5.47	16.27	0.00	947.36	328.82	45681
2014	94	19.92	7.49	16.50	0.00	840.80	339.59	45886
2014	95	18.43	9.94	16.10	0.01	606.00	266.62	46091
2014	96	19.52	9.39	16.73	0.74	726.26	264.15	46295
2014	97	20.52	6.83	16.76	0.00	917.09	440.47	46499
2014	98	23.74	7.34	19.23	0.37	1203.00	416.40	46702
2014	99	18.02	7.65	15.17	0.00	676.01	338.89	46905
2014	100	12.71	2.60	9.93	0.36	485.26	141.55	47107
2014	101	14.75	2.00	11.24	0.00	627.98	490.32	47309
2014	102	15.29	2.14	11.67	0.00	659.40	346.26	47510
2014	103	16.58	2.44	12.69	0.06	739.06	289.45	47710
2014	104	19.25	4.31	15.14	0.42	889.14	289.03	47910
2014	105	10.36	3.48	8.47	0.01	323.20	264.82	48108
2014	106	11.68	3.77	9.50	0.01	387.29	270.74	48306
2014	107	11.89	3.88	9.69	0.00	395.72	199.61	48504
2014	108	18.53	2.48	14.12	0.00	879.79	486.66	48700
2014	109	18.40	8.51	15.68	0.62	670.46	314.95	48895
2014	110	14.76	7.56	12.78	0.38	435.00	196.81	49089
2014	111	18.32	8.33	15.57	0.78	671.72	217.55	49282
2014	112	19.69	9.98	17.02	0.00	713.45	341.37	49475
2014	113	19.94	9.10	16.96	0.00	776.42	370.25	49666
2014	114	20.59	12.06	18.24	0.43	687.46	316.14	49855
2014	115	17.16	12.30	15.82	1.80	367.14	67.08	50044
2014	116	17.27	11.33	15.64	0.01	434.47	170.46	50231
2014	117	20.63	7.14	16.92	0.00	915.87	473.94	50417
2014	118	20.74	9.02	17.52	0.05	852.05	335.00	50601
2014	119	19.19	8.96	16.38	0.04	717.12	344.05	50784
2014	120	21.72	8.86	18.18	0.05	950.17	488.57	50966
2014	121	21.86	8.14	18.09	0.00	991.72	476.93	51145
2014	122	22.28	7.00	18.08	0.04	1071.67	361.45	51324
2014	123	14.88	8.29	13.07	0.07	410.00	149.54	51500
2014	124	15.18	6.16	12.70	0.01	522.68	495.34	51674
2014	125	15.73	4.15	12.55	0.00	631.45	527.01	51847
2014	126	20.15	2.90	15.41	0.00	997.35	491.27	52018
2014	127	21.33	7.31	17.47	0.85	972.82	383.75	52187
2014	128	20.65	9.42	17.56	0.10	826.31	394.62	52353
2014	129	22.76	7.79	18.64	0.69	1090.85	419.39	52518
2014	130	22.02	11.47	19.12	0.22	859.05	445.41	52680
2014	131	19.20	8.50	16.26	2.38	738.11	132.63	52840
2014	132	17.99	5.78	14.63	0.58	743.91	378.30	52998
2014	133	12.46	8.06	11.25	1.23	257.34	132.05	53153
2014	134	14.77	6.54	12.51	0.09	479.12	329.23	53306
2014	135	11.87	7.59	10.69	0.86	242.80	136.11	53456
2014	136	10.77	8.46	10.13	0.60	132.15	47.34	53603
2014	137	14.76	7.81	12.85	0.31	423.75	205.89	53748
2014	138	18.51	9.53	16.04	0.92	632.81	300.10	53889
2014	139	22.80	7.86	18.69	0.01	1092.29	373.07	54028
2014	140	24.19	8.99	20.01	0.00	1191.89	493.69	54164
2014	141	25.67	9.99	21.36	0.00	1314.57	493.30	54297
2014	142	27.10	12.93	23.20	0.00	1352.89	485.93	54426
2014	143	28.18	14.23	24.34	0.16	1423.18	342.33	54552
2014	144	26.51	15.45	23.47	0.02	1134.46	457.22	54675
2014	145	25.13	14.75	22.28	0.01	1010.32	430.10	54795
2014	146	25.81	13.08	22.31	0.13	1188.21	336.10	54911
2014	147	24.78	12.98	21.54	0.18	1073.76	466.77	55023
2014	148	19.59	11.38	17.33	0.04	632.34	234.02	55132
2014	149	19.89	11.32	17.53	0.13	662.96	234.89	55237
2014	150	16.04	8.99	14.10	0.00	461.55	308.80	55339
2014	151	17.45	7.17	14.62	0.02	650.34	242.01	55436
2014	152	20.66	10.13	17.76	0.00	794.48	213.39	55530
2014	153	21.14	9.31	17.89	0.01	876.55	408.30	55619
2014	154	21.08	8.56	17.64	0.59	902.47	349.54	55705
2014	155	23.46	7.60	19.10	0.00	1166.43	503.36	55786
2014	156	22.04	11.38	19.11	0.01	865.68	315.61	55863
2014	157	25.82	9.83	21.42	0.00	1337.75	500.01	55936
2014	158	28.35	11.29	23.66	0.00	1584.63	501.59	56004
2014	159	30.16	13.89	25.69	0.00	1712.07	501.98	56068
2014	160	31.18	14.72	26.65	0.00	1818.56	480.38	56128
2014	161	32.33	15.17	27.61	0.00	1971.06	397.62	56183
2014	162	33.27	16.04	28.53	0.00	2075.77	500.28	56234
2014	163	29.21	18.69	26.32	0.11	1269.75	358.09	56280
2014	164	25.89	16.07	23.19	0.10	1015.20	327.19	56321
2014	165	23.39	14.42	20.92	0.01	832.35	416.04	56358
2014	166	22.84	10.51	19.45	0.00	988.73	468.31	56390
2014	167	22.41	10.58	19.16	0.00	942.03	462.93	56418
2014	168	19.67	12.94	17.82	0.00	548.50	165.08	56440
2014	169	24.98	11.79	21.35	0.05	1157.74	449.83	56458
2014	170	26.19	10.61	21.91	0.04	1349.19	443.35	56472
2014	171	21.46	12.53	19.00	0.31	745.32	294.58	56480
2014	172	22.07	9.30	18.56	0.00	965.53	410.35	56484
2014	173	26.64	9.89	22.03	0.00	1429.91	511.24	56482
2014	174	27.12	13.81	23.46	1.80	1309.23	450.99	56476
2014	175	23.62	15.48	21.38	0.39	786.92	133.58	56466
2014	176	19.33	13.00	17.59	0.23	513.28	175.04	56450
2014	177	21.93	9.66	18.56	0.00	936.49	532.86	56430
2014	178	24.49	11.57	20.94	0.00	1113.69	458.20	56405
2014	179	27.09	12.19	22.99	0.01	1387.54	343.73	56375
2014	180	29.71	15.34	25.76	2.50	1570.54	502.41	56341
2014	181	23.71	12.51	20.63	0.86	980.25	251.99	56301
2014	182	23.38	9.36	19.52	0.00	1093.53	454.35	56258
2014	183	26.44	11.28	22.27	0.53	1350.13	429.28	56209
2014	184	25.46	13.30	22.12	0.00	1134.94	490.49	56156
2014	185	26.15	11.30	22.07	0.00	1315.06	511.04	56099
2014	186	26.29	14.68	23.10	0.17	1155.23	341.78	56037
2014	187	29.60	14.65	25.49	0.00	1593.71	495.59	55971
2014	188	31.07	15.46	26.78	0.00	1762.45	512.73	55900
2014	189	27.56	18.06	24.95	0.03	1086.06	420.86	55825
2014	190	22.75	14.90	20.59	0.67	730.63	285.40	55746
2014	191	17.74	12.24	16.23	1.02	419.74	142.76	55663
2014	192	20.53	13.18	18.51	0.28	615.19	152.96	55575
2014	193	26.73	13.88	23.20	0.06	1256.47	384.40	55484
2014	194	25.29	13.98	22.18	0.24	1076.22	417.42	55388
2014	195	25.70	13.61	22.38	0.62	1146.11	368.49	55289
2014	196	28.31	15.26	24.72	0.02	1381.28	487.40	55186
2014	197	29.34	17.28	26.02	0.00	1393.72	413.14	55079
2014	198	29.59	17.22	26.19	0.04	1434.11	482.93	54968
2014	199	29.25	14.95	25.32	0.00	1528.15	484.71	54854
2014	200	30.31	16.10	26.40	0.00	1612.23	468.40	54736
2014	201	30.94	16.46	26.96	0.00	1684.18	469.07	54615
2014	202	29.70	18.28	26.56	0.00	1373.69	311.34	54490
2014	203	22.82	15.29	20.75	1.42	711.31	132.43	54362
2014	204	26.91	17.54	24.33	0.03	1039.00	471.66	54231
2014	205	26.76	14.37	23.35	0.00	1232.29	479.02	54097
2014	206	26.91	16.26	23.98	0.16	1131.71	302.48	53960
2014	207	28.43	15.45	24.86	0.01	1386.01	423.45	53819
2014	208	25.73	15.87	23.02	0.59	1009.16	276.26	53676
2014	209	24.11	17.59	22.32	0.82	683.96	181.11	53530
2014	210	27.08	16.68	24.22	0.01	624.00	280.33	53382
2014	211	27.74	16.18	24.56	2.78	582.14	279.41	53230
2014	212	25.42	16.56	22.98	0.23	514.29	239.43	53076
2014	213	26.31	17.90	24.00	0.00	762.86	359.63	52920
2014	214	28.69	16.63	25.37	0.00	1085.71	402.27	52761
2014	215	29.09	17.16	25.81	0.00	1061.43	450.67	52600
2014	216	26.79	15.46	23.67	0.05	831.43	370.91	52437
2014	217	25.26	16.10	22.74	0.02	968.57	360.00	52271
2014	218	23.35	17.71	21.80	0.00	937.14	214.79	52103
2014	219	25.50	17.23	23.23	0.00	1166.43	365.09	51934
2014	220	28.25	13.63	24.23	0.00	1423.57	483.07	51762
2014	221	29.90	14.94	25.79	1.22	1278.57	440.36	51588
2014	222	28.62	16.63	25.32	0.00	1020.00	435.41	51413
2014	223	29.78	17.22	26.33	1.31	1147.14	443.02	51235
2014	224	22.01	16.60	20.52	1.60	505.71	183.37	51057
2014	225	25.60	14.66	22.59	3.26	565.00	334.25	50876
2014	226	22.37	13.69	19.98	2.64	233.57	147.27	50694
2014	227	21.64	13.43	19.38	0.17	575.00	209.71	50510
2014	228	21.84	10.88	18.83	0.00	837.14	360.78	50325
2014	229	22.90	9.73	19.28	0.00	1016.43	455.16	50138
2014	230	24.38	10.29	20.51	0.00	987.14	461.93	49951
2014	231	23.87	11.88	20.57	0.02	685.00	307.20	49761
2014	232	19.89	14.75	18.48	1.88	355.00	194.85	49571
2014	233	21.42	12.15	18.87	0.09	732.86	443.05	49380
2014	234	21.86	11.08	18.90	0.00	608.57	264.49	49187
2014	235	21.45	12.51	18.99	0.96	373.57	218.25	48993
2014	236	21.29	13.17	19.06	0.13	779.29	312.52	48798
2014	237	20.51	8.83	17.30	0.00	801.43	420.49	48603
2014	238	21.46	10.82	18.53	0.03	583.57	208.77	48406
2014	239	23.23	14.53	20.84	0.12	466.43	272.13	48208
2014	240	22.34	7.85	18.36	0.00	977.14	438.44	48010
2014	241	23.37	8.81	19.37	0.00	915.71	450.11	47811
2014	242	24.52	10.79	20.74	0.02	840.00	373.40	47611
2014	243	22.42	14.69	20.29	2.26	472.86	216.32	47410
2014	244	18.96	11.98	17.04	1.81	151.43	60.92	47209
2014	245	15.23	13.16	14.66	2.53	190.71	47.74	47007
2014	246	20.01	13.89	18.33	0.03	454.62	262.62	46805
2014	247	22.69	15.59	20.74	0.34	575.38	189.87	46601
2014	248	24.49	16.19	22.21	0.57	609.23	323.99	46398
2014	249	20.80	16.23	19.54	0.06	306.15	136.04	46194
2014	250	21.61	14.97	19.78	0.00	501.54	221.72	45989
2014	251	24.62	12.60	21.31	0.00	786.92	393.66	45784
2014	252	25.97	13.37	22.50	0.32	676.15	346.91	45579
2014	253	19.10	15.17	18.02	0.31	289.23	118.29	45373
2014	254	15.95	12.83	15.09	2.76	158.46	45.96	45167
2014	255	15.40	12.23	14.53	3.74	158.46	114.55	44961
2014	256	20.22	12.85	18.19	0.09	381.54	224.60	44755
2014	257	17.77	13.44	16.58	0.72	146.67	108.02	44548
2014	258	19.59	13.61	17.95	0.09	265.83	170.37	44341
2014	259	20.66	13.33	18.64	0.08	430.83	231.16	44134
2014	260	21.36	11.00	18.51	0.00	665.83	366.53	43927
2014	261	21.33	8.41	17.78	0.00	751.67	409.68	43719
2014	262	23.96	11.17	20.44	0.00	733.33	378.19	43512
2014	263	24.01	13.09	21.01	0.00	573.33	302.16	43304
2014	264	25.73	15.36	22.88	1.91	905.00	398.95	43097
2014	265	18.49	11.78	16.64	0.01	680.83	255.05	42890
2014	266	16.62	7.40	14.08	0.00	689.17	279.91	42682
2014	267	18.25	5.35	14.70	0.00	616.67	400.53	42475
2014	268	15.71	7.60	13.48	0.07	275.00	155.85	42268
2014	269	14.02	8.46	12.49	0.20	227.50	47.57	42060
2014	270	18.19	11.48	16.34	0.01	300.83	174.70	41854
2014	271	20.90	8.22	17.41	0.00	671.67	405.42	41647
2014	272	21.51	8.46	17.92	0.00	683.33	392.59	41440
2014	273	17.32	8.52	14.90	0.00	92.50	120.88	41234
2014	274	18.62	10.51	16.39	0.12	215.83	152.81	41028
2014	275	18.07	13.23	16.74	0.20	312.50	118.11	40822
2014	276	17.79	10.61	15.82	0.00	349.09	251.45	40617
2014	277	15.49	8.96	13.69	0.05	200.91	94.67	40412
2014	278	17.85	10.41	15.80	0.01	500.00	266.23	40208
2014	279	17.82	6.06	14.59	0.00	470.91	311.16	40003
2014	280	18.10	8.63	15.50	0.00	273.64	209.83	39800
2014	281	22.22	10.71	19.05	0.00	580.00	250.91	39597
2014	282	24.76	13.96	21.79	0.00	1025.45	376.59	39394
2014	283	24.06	12.59	20.91	0.00	777.27	372.39	39192
2014	284	25.10	11.19	21.27	0.00	925.45	355.51	38991
2014	285	22.85	11.19	19.64	0.00	648.18	332.80	38790
2014	286	25.03	11.85	21.41	0.00	976.36	340.59	38590
2014	287	24.28	14.14	21.49	0.01	1117.27	306.96	38391
2014	288	18.73	11.45	16.73	0.05	292.73	158.62	38193
2014	289	22.09	11.87	19.28	0.12	548.18	289.71	37995
2014	290	19.05	12.75	17.32	0.17	141.82	101.30	37799
2014	291	20.09	7.96	16.75	0.00	623.64	308.52	37603
2014	292	20.85	8.11	17.35	0.00	708.18	338.79	37408
2014	293	23.36	8.81	19.36	0.00	753.64	311.01	37214
2014	294	17.63	12.54	16.23	6.07	145.45	97.43	37022
2014	295	14.68	6.15	12.33	0.31	230.00	117.09	36830
2014	296	9.48	5.96	8.51	0.50	184.55	47.67	36640
2014	297	9.27	6.99	8.64	0.18	259.09	30.28	36451
2014	298	7.96	5.08	7.17	0.02	80.91	41.54	36263
2014	299	8.59	3.50	7.19	0.00	120.91	104.14	36076
2014	300	8.88	3.41	7.38	0.00	168.18	64.38	35891
2014	301	9.59	-0.53	6.81	0.00	213.00	293.95	35707
2014	302	9.39	-0.76	6.60	0.00	210.00	194.79	35525
2014	303	9.18	3.79	7.70	0.00	257.00	60.57	35345
2014	304	11.56	3.58	9.37	0.00	242.00	87.42	35166
2014	305	14.52	3.48	11.48	0.00	423.00	263.69	34988
2014	306	13.56	3.12	10.69	0.00	382.00	277.86	34813
2014	307	10.93	2.65	8.65	0.00	168.00	138.03	34639
2014	308	17.82	7.44	14.97	0.00	706.00	240.10	34468
2014	309	19.98	9.37	17.06	0.29	887.00	208.51	34298
2014	310	16.43	11.32	15.02	0.13	201.11	87.89	34130
2014	311	16.76	10.06	14.92	0.44	205.56	112.78	33964
2014	312	14.99	9.07	13.36	0.03	270.00	74.55	33801
2014	313	12.96	8.17	11.64	0.00	204.44	127.81	33640
2014	314	18.15	8.48	15.49	0.00	505.56	255.57	33481
2014	315	18.07	9.56	15.73	0.00	636.67	199.62	33325
2014	316	14.50	8.14	12.75	0.02	206.67	132.42	33171
2014	317	11.66	8.09	10.68	0.01	160.00	62.95	33019
2014	318	13.99	9.86	12.85	0.00	230.00	105.12	32871
2014	319	12.69	9.35	11.77	0.03	181.11	92.96	32725
2014	320	14.05	8.13	12.42	0.00	220.00	199.75	32582
2014	321	10.40	7.92	9.72	1.41	37.78	65.35	32441
2014	322	13.95	7.28	12.12	0.01	344.44	170.47	32304
2014	323	12.44	5.20	10.45	0.02	354.44	207.97	32170
2014	324	10.92	4.65	9.20	0.00	308.89	209.77	32039
2014	325	8.59	2.16	6.82	0.00	305.56	134.02	31911
2014	326	9.10	0.02	6.60	0.00	261.11	198.60	31786
2014	327	7.38	-0.28	5.27	0.00	205.56	180.38	31665
2014	328	4.98	1.50	4.02	0.02	135.56	33.86	31547
2014	329	4.79	1.52	3.89	0.01	96.67	42.74	31433
2014	330	5.17	1.14	4.06	0.00	205.56	93.98	31322
2014	331	3.36	0.69	2.63	0.00	191.11	76.62	31215
2014	332	2.43	0.71	1.96	0.10	20.00	28.61	31112
2014	333	2.90	2.00	2.65	0.08	10.00	25.69	31012
2014	334	3.17	2.18	2.90	0.35	10.00	30.82	30917
2014	335	2.58	1.39	2.25	0.92	21.11	10.20	30825
2014	336	1.86	0.22	1.41	0.24	21.11	22.72	30738
2014	337	3.69	1.15	2.99	0.10	28.89	23.80	30654
2014	338	4.48	3.12	4.11	0.15	65.56	28.96	30575
2014	339	5.00	3.56	4.60	0.09	44.44	36.85	30500
2014	340	5.24	4.04	4.91	1.66	20.00	13.50	30430
2014	341	5.40	4.13	5.05	1.04	76.67	32.36	30363
2014	342	6.55	3.03	5.58	0.01	148.89	103.73	30301
2014	343	4.28	1.81	3.60	0.00	250.00	73.83	30244
2014	344	4.01	-1.79	2.42	0.00	252.22	198.49	30191
2014	345	5.32	-2.47	3.18	0.00	292.22	111.57	30143
2014	346	7.73	-1.64	5.15	0.00	334.44	200.95	30099
2014	347	11.00	0.37	8.08	0.00	592.22	163.49	30060
2014	348	7.40	-0.32	5.28	0.00	118.75	65.99	30025
2014	349	4.44	-2.09	2.64	0.00	345.00	62.21	29995
2014	350	4.72	-1.79	2.93	0.28	237.50	55.59	29970
2014	351	8.21	1.86	6.46	0.00	247.50	159.61	29950
2014	352	9.41	1.64	7.27	0.00	816.25	122.90	29934
2014	353	13.45	3.66	10.76	0.00	886.25	188.94	29924
2014	354	11.92	2.98	9.46	0.01	858.75	189.15	29918
2014	355	9.58	0.89	7.19	0.00	1036.25	202.43	29916
2014	356	8.34	-2.06	5.48	0.00	948.75	117.89	29920
2014	357	12.32	2.34	9.58	0.00	1206.25	132.03	29928
2014	358	8.82	-1.92	5.87	0.00	795.00	160.93	29941
2014	359	8.49	-2.18	5.56	0.00	580.00	173.78	29959
2014	360	5.66	-1.27	3.75	0.23	605.00	151.72	29982
2014	361	0.55	-3.87	-0.67	0.28	235.00	108.45	30009
2014	362	0.00	-5.57	-1.53	0.07	90.00	56.99	30042
2014	363	-1.12	-6.59	-2.62	0.00	288.75	182.77	30078
2014	364	-2.55	-8.65	-4.23	0.00	165.00	86.89	30120
2014	365	-3.86	-14.07	-6.67	0.00	163.75	247.17	30166
2015	1	0.10	-6.40	-1.69	0.00	161.14	63.15	30217
2015	2	6.10	-3.20	3.54	0.28	212.50	133.17	30272
2015	3	5.80	-1.50	3.79	0.11	177.50	143.03	30331
2015	4	6.90	-0.60	4.84	0.33	367.50	209.28	30396
2015	5	3.50	-0.40	2.43	0.00	206.25	70.11	30464
2015	6	5.20	-0.60	3.61	0.00	228.75	185.36	30537
2015	7	-1.00	-3.80	-1.77	0.00	160.00	93.68	30614
2015	8	0.60	-4.10	-0.69	0.00	111.25	99.18	30695
2015	9	6.00	-2.30	3.72	0.02	158.75	64.27	30781
2015	10	14.00	1.10	10.45	0.00	578.75	160.15	30870
2015	11	6.40	2.00	5.19	0.58	165.00	14.49	30964
2015	12	8.70	0.60	6.47	0.00	464.44	173.84	31061
2015	13	11.70	-1.30	8.13	0.00	541.11	207.09	31162
2015	14	7.50	-1.50	5.03	0.09	256.67	187.79	31268
2015	15	8.60	-0.80	6.01	0.00	248.89	186.14	31376
2015	16	13.60	-0.50	9.72	0.00	600.00	190.64	31489
2015	17	11.40	6.00	9.91	0.02	610.00	56.68	31605
2015	18	9.40	1.40	7.20	0.00	154.44	70.84	31724
2015	19	6.50	1.00	4.99	0.00	62.22	101.09	31847
2015	20	4.80	0.20	3.54	0.24	91.00	80.61	31974
2015	21	3.80	2.00	3.30	0.02	46.00	60.44	32103
2015	22	6.40	3.50	5.60	0.02	69.00	53.16	32236
2015	23	6.90	5.30	6.46	0.87	153.00	29.56	32372
2015	24	5.60	1.30	4.42	0.36	70.00	27.78	32510
2015	25	4.10	1.50	3.38	0.00	195.00	56.50	32652
2015	26	3.20	-1.30	1.96	0.00	242.00	193.86	32797
2015	27	1.70	-2.70	0.49	0.05	103.00	57.22	32944
2015	28	5.80	-3.90	3.13	0.00	238.00	263.36	33094
2015	29	0.80	-1.80	0.09	0.20	75.00	35.77	33247
2015	30	1.90	-4.20	0.22	1.61	28.00	23.48	33402
2015	31	5.40	-6.60	2.10	0.00	166.00	276.61	33559
2015	32	2.00	-7.30	-0.56	0.62	71.00	101.09	33719
2015	33	5.10	-6.90	1.80	0.01	139.00	300.56	33882
2015	34	1.30	-8.00	-1.26	0.01	128.00	204.18	34046
2015	35	1.50	-0.30	1.00	0.00	75.00	50.48	34213
2015	36	1.30	-2.00	0.39	0.03	119.00	112.34	34382
2015	37	0.40	-2.00	-0.26	0.00	169.00	75.30	34552
2015	38	1.30	-4.60	-0.32	0.00	205.00	275.35	34725
2015	39	2.90	-6.80	0.23	0.02	198.00	167.07	34900
2015	40	0.80	-1.60	0.14	0.31	110.00	63.33	35076
2015	41	4.60	-1.10	3.03	0.02	284.00	77.83	35254
2015	42	5.00	0.90	3.87	0.00	174.00	126.94	35434
2015	43	6.10	0.40	4.53	0.00	195.00	200.24	35615
2015	44	5.70	-2.80	3.36	0.00	228.00	302.05	35798
2015	45	6.50	-2.30	4.08	0.00	189.00	97.33	35983
2015	46	11.10	-0.30	7.96	0.00	353.00	187.96	36169
2015	47	10.40	-2.10	6.96	0.00	364.00	316.51	36356
2015	48	5.10	-2.60	2.98	0.00	188.00	231.05	36544
2015	49	5.00	-0.10	3.60	0.00	228.00	187.30	36734
2015	50	8.50	-2.00	5.61	0.00	335.00	297.12	36925
2015	51	11.10	-2.60	7.33	0.00	465.00	315.70	37117
2015	52	11.80	-0.90	8.31	0.00	612.00	320.45	37310
2015	53	8.00	2.20	6.40	1.12	297.00	66.41	37505
2015	54	6.80	3.50	5.89	0.22	80.00	71.13	37700
2015	55	5.90	4.50	5.52	1.61	47.27	48.07	37896
2015	56	7.70	4.60	6.85	0.00	342.73	100.95	38093
2015	57	10.40	5.20	8.97	0.00	369.09	205.43	38291
2015	58	10.10	-2.00	6.77	0.00	270.91	255.51	38490
2015	59	9.80	-0.70	6.91	0.00	356.36	239.02	38689
2015	60	10.50	-2.50	6.93	0.00	388.18	250.00	38890
2015	61	11.80	2.40	9.21	0.44	400.91	98.88	39091
2015	62	11.80	0.20	8.61	0.00	689.17	340.77	39292
2015	63	11.00	-2.10	7.40	0.00	453.33	230.40	39495
2015	64	8.00	2.80	6.57	0.00	381.67	244.63	39697
2015	65	7.30	1.50	5.71	0.00	408.33	302.72	39901
2015	66	10.20	-0.10	7.37	0.00	395.00	385.96	40105
2015	67	10.80	-4.50	6.59	0.00	528.33	398.38	40309
2015	68	11.00	-2.10	7.40	0.00	542.50	353.20	40514
2015	69	14.00	-3.10	9.30	0.00	676.67	380.98	40719
2015	70	9.40	-1.10	6.51	0.14	305.83	136.62	40924
2015	71	8.50	3.30	7.07	0.00	435.00	198.48	41130
2015	72	6.40	4.40	5.85	0.00	290.83	85.83	41336
2015	73	8.80	3.80	7.43	0.00	306.67	147.96	41543
2015	74	8.50	-0.10	6.13	0.10	225.00	126.38	41749
2015	75	12.70	1.40	9.59	0.00	402.50	305.58	41956
2015	76	13.30	3.00	10.47	0.00	528.33	310.03	42163
2015	77	12.80	-1.50	8.87	0.00	623.33	392.35	42370
2015	78	12.00	-2.50	8.01	0.00	533.33	380.32	42578
2015	79	13.00	-3.10	8.57	0.00	560.83	349.98	42785
2015	80	17.10	-1.80	11.90	0.00	823.33	405.64	42992
2015	81	13.30	3.60	10.63	0.00	506.67	341.21	43200
2015	82	13.00	-2.20	8.82	0.00	531.67	396.12	43407
2015	83	15.70	-1.60	10.94	0.00	690.00	374.45	43615
2015	84	15.20	1.40	11.40	0.90	560.83	182.80	43822
2015	85	18.80	7.90	15.80	0.38	618.33	353.34	44029
2015	86	12.80	8.00	11.48	0.12	387.50	87.96	44236
2015	87	12.20	7.30	10.85	0.00	657.50	341.16	44443
2015	88	15.60	0.60	11.48	0.00	723.33	337.51	44650
2015	89	15.60	7.50	13.37	0.20	532.50	194.65	44857
2015	90	18.60	0.70	13.68	0.02	753.33	262.22	45063
2015	91	13.60	3.70	10.88	0.00	627.50	445.20	45270
2015	92	13.20	0.80	9.79	0.00	747.50	228.52	45475
2015	93	11.10	-1.10	7.75	0.00	676.15	376.93	45681
2015	94	9.50	-0.50	6.75	0.00	474.62	198.00	45886
2015	95	9.40	2.40	7.48	0.00	456.15	354.63	46091
2015	96	8.50	1.10	6.46	0.00	545.38	428.59	46295
2015	97	9.10	2.40	7.26	0.00	504.29	254.87	46499
2015	98	10.20	5.50	8.91	0.02	435.00	67.40	46702
2015	99	13.90	7.40	12.11	0.00	590.71	283.43	46905
2015	100	18.80	2.00	14.18	0.00	922.14	473.21	47107
2015	101	21.10	2.80	16.07	0.37	1034.29	428.33	47309
2015	102	20.70	8.00	17.21	0.00	1043.57	426.27	47510
2015	103	23.70	4.00	18.28	0.00	1295.71	448.78	47710
2015	104	18.00	8.30	15.33	0.00	928.57	432.58	47910
2015	105	24.80	4.90	19.33	0.00	1575.00	463.20	48108
2015	106	27.70	4.00	21.18	0.00	1846.43	448.23	48306
2015	107	21.90	7.00	17.80	0.69	936.43	236.59	48504
2015	108	12.60	6.80	11.00	0.00	435.71	229.21	48700
2015	109	13.60	0.80	10.08	0.00	608.57	450.69	48895
2015	110	19.50	1.50	14.55	0.00	909.29	524.28	49089
2015	111	21.50	8.20	17.84	0.00	1177.14	515.47	49282
2015	112	20.80	8.20	17.34	0.00	1227.14	458.89	49475
2015	113	23.20	3.20	17.70	0.00	1394.29	466.12	49666
2015	114	19.60	7.00	16.14	0.00	910.00	314.11	49855
2015	115	23.10	5.90	18.37	0.00	1087.86	498.44	50044
2015	116	22.90	8.50	18.94	0.00	1159.29	374.28	50231
2015	117	23.20	7.70	18.94	0.00	1196.43	463.69	50417
2015	118	19.10	9.50	16.46	1.06	207.86	112.71	50601
2015	119	16.50	8.80	14.38	0.00	867.14	539.60	50784
2015	120	18.50	1.50	13.82	0.15	970.00	389.10	50966
2015	121	18.20	5.80	14.79	0.42	646.43	295.80	51145
2015	122	18.90	10.60	16.62	0.18	451.43	350.11	51324
2015	123	18.00	9.40	15.64	0.09	320.00	176.04	51500
2015	124	24.70	12.20	21.26	0.00	812.86	410.06	51674
2015	125	28.30	11.70	23.73	0.00	1329.29	422.28	51847
2015	126	26.80	13.80	23.23	0.07	964.67	409.05	52018
2015	127	22.70	9.10	18.96	0.00	1034.00	548.77	52187
2015	128	24.40	13.20	21.32	0.00	1203.33	486.81	52353
2015	129	24.30	9.40	20.20	0.06	732.00	298.32	52518
2015	130	22.90	11.70	19.82	0.00	1154.67	454.08	52680
2015	131	20.60	10.50	17.82	0.00	1018.00	539.81	52840
2015	132	24.50	4.50	19.00	0.00	1296.00	514.77	52998
2015	133	24.80	11.40	21.12	0.71	928.00	436.63	53153
2015	134	24.10	13.40	21.16	0.01	666.67	350.40	53306
2015	135	18.10	11.50	16.29	0.50	236.00	118.29	53456
2015	136	20.30	11.90	17.99	0.00	395.33	275.61	53603
2015	137	20.50	10.90	17.86	0.00	700.00	405.36	53748
2015	138	23.30	10.90	19.89	0.00	842.67	403.72	53889
2015	139	28.30	10.40	23.38	0.02	1067.33	439.46	54028
2015	140	25.40	11.30	21.52	1.98	888.67	462.80	54164
2015	141	13.50	10.10	12.57	0.41	235.33	102.52	54297
2015	142	13.00	11.10	12.48	4.42	160.00	58.23	54426
2015	143	13.40	10.60	12.63	0.24	126.88	99.81	54552
2015	144	18.30	6.00	14.92	0.00	393.13	407.01	54675
2015	145	18.70	12.60	17.02	0.12	456.25	137.68	54795
2015	146	17.10	13.70	16.16	0.37	298.13	161.56	54911
2015	147	16.80	11.30	15.29	0.00	685.63	316.95	55023
2015	148	17.60	8.30	15.04	0.00	707.50	405.38	55132
2015	149	23.40	5.50	18.48	0.00	988.13	504.03	55237
2015	150	24.70	8.30	20.19	0.12	924.38	526.00	55339
2015	151	22.30	13.80	19.96	0.00	663.75	351.21	55436
2015	152	26.30	11.00	22.09	0.00	1038.75	459.99	55530
2015	153	28.60	12.80	24.26	0.00	1370.00	492.81	55619
2015	154	30.00	13.10	25.35	0.00	1597.50	492.99	55705
2015	155	27.90	16.70	24.82	0.00	1289.38	510.86	55786
2015	156	26.80	15.80	23.78	0.00	1195.00	449.99	55863
2015	157	29.40	11.60	24.50	0.00	1366.87	510.19	55936
2015	158	29.60	14.30	25.39	0.00	1565.00	476.21	56004
2015	159	29.70	12.60	25.00	0.00	1696.88	505.68	56068
2015	160	26.70	16.50	23.90	0.00	1050.00	499.60	56128
2015	161	27.10	14.10	23.53	0.00	990.00	510.80	56183
2015	162	28.60	15.40	24.97	0.00	1287.50	501.27	56234
2015	163	31.00	14.60	26.49	0.00	1628.75	489.73	56280
2015	164	32.00	16.50	27.74	0.00	1997.50	489.61	56321
2015	165	31.80	14.00	26.91	0.05	1838.75	420.71	56358
2015	166	25.70	14.00	22.48	0.13	704.38	276.20	56390
2015	167	22.20	15.70	20.41	0.03	947.50	357.85	56418
2015	168	21.20	14.20	19.27	0.00	1005.00	405.19	56440
2015	169	24.00	10.90	20.40	0.00	1187.50	418.65	56458
2015	170	20.80	15.80	19.43	0.21	666.88	184.52	56472
2015	171	20.60	9.30	17.49	0.22	591.25	339.25	56480
2015	172	20.00	5.80	16.09	0.00	833.13	391.31	56484
2015	173	25.40	8.40	20.72	0.00	1143.75	464.15	56482
2015	174	23.20	11.40	19.95	2.67	138.13	66.53	56476
2015	175	20.60	11.20	18.02	0.00	735.31	348.24	56466
2015	176	23.50	7.90	19.21	0.00	1160.27	475.58	56450
2015	177	25.60	14.60	22.58	0.00	1370.00	533.84	56430
2015	178	25.70	15.30	22.84	0.24	797.50	211.97	56405
2015	179	25.70	16.10	23.06	0.00	1018.13	429.72	56375
2015	180	25.00	12.90	21.67	0.00	1110.00	371.74	56341
2015	181	27.20	11.10	22.77	0.00	1398.75	464.42	56301
2015	182	30.30	14.00	25.82	0.00	1623.75	459.22	56258
2015	183	31.70	15.90	27.36	0.00	1828.75	499.83	56209
2015	184	30.40	17.60	26.88	0.00	1801.88	497.85	56156
2015	185	31.60	15.00	27.04	0.00	2052.50	523.19	56099
2015	186	33.40	14.50	28.20	0.00	2082.50	513.05	56037
2015	187	34.60	15.60	29.38	0.00	2108.13	466.50	55971
2015	188	36.90	18.90	31.95	0.00	2431.88	478.24	55900
2015	189	33.20	18.90	29.27	4.57	1217.50	297.43	55825
2015	190	24.90	16.00	22.45	0.29	559.38	316.63	55746
2015	191	24.50	11.40	20.90	0.00	1177.50	507.94	55663
2015	192	27.60	13.30	23.67	0.10	1318.75	481.58	55575
2015	193	31.00	14.20	26.38	1.71	1583.13	431.27	55484
2015	194	27.30	18.00	24.74	0.10	410.00	179.82	55388
2015	195	26.80	16.70	24.02	0.00	895.00	319.04	55289
2015	196	29.60	18.80	26.63	0.00	1298.13	442.17	55186
2015	197	32.00	18.30	28.23	0.00	1355.00	376.82	55079
2015	198	34.80	19.20	30.51	0.00	1853.13	461.42	54968
2015	199	32.30	19.40	28.75	0.63	1643.75	350.13	54854
2015	200	35.50	18.70	30.88	0.00	1916.88	465.74	54736
2015	201	32.10	19.90	28.75	0.00	1782.50	450.58	54615
2015	202	34.10	18.50	29.81	0.00	1841.88	369.82	54490
2015	203	35.70	19.00	31.11	0.00	2141.25	474.70	54362
2015	204	33.40	19.50	29.58	0.30	1826.25	374.78	54231
2015	205	34.00	21.70	30.62	0.12	1751.25	452.86	54097
2015	206	32.90	18.10	28.83	2.89	1127.50	370.23	53960
2015	207	21.50	14.70	19.63	0.00	590.63	170.92	53819
2015	208	20.60	13.90	18.76	0.09	420.63	157.37	53676
2015	209	24.20	16.30	22.03	0.00	788.13	271.28	53530
2015	210	20.80	14.10	18.96	0.45	328.67	101.23	53382
2015	211	20.40	14.80	18.86	0.08	561.43	174.87	53230
2015	212	24.60	16.00	22.23	0.00	1270.00	371.65	53076
2015	213	26.60	9.00	21.76	0.02	1351.43	491.91	52920
2015	214	26.10	16.20	23.38	0.40	1182.14	350.71	52761
2015	215	28.90	17.10	25.66	0.00	1195.71	426.81	52600
2015	216	31.20	16.20	27.07	0.00	1473.57	395.80	52437
2015	217	32.20	18.10	28.32	0.00	2064.29	480.90	52271
2015	218	34.00	17.30	29.41	0.00	2191.43	442.06	52103
2015	219	35.20	18.10	30.50	0.00	2453.57	479.18	51934
2015	220	35.40	18.10	30.64	0.00	2487.86	453.94	51762
2015	221	35.30	16.80	30.21	0.00	2542.14	463.40	51588
2015	222	34.40	15.20	29.12	0.00	2699.29	453.25	51413
2015	223	34.30	15.20	29.05	0.00	2616.43	437.78	51235
2015	224	36.10	15.40	30.41	0.00	3033.57	446.12	51057
2015	225	36.20	15.40	30.48	0.00	2750.71	406.28	50876
2015	226	35.80	16.60	30.52	0.00	2414.29	417.12	50694
2015	227	34.40	17.20	29.67	0.02	2207.14	396.02	50510
2015	228	30.20	18.60	27.01	1.80	1462.86	316.94	50325
2015	229	26.10	17.90	23.84	0.21	342.14	160.75	50138
2015	230	22.80	16.30	21.01	0.00	735.71	359.58	49951
2015	231	23.70	13.90	21.00	0.00	729.29	289.65	49761
2015	232	19.00	15.10	17.93	0.02	345.71	153.84	49571
2015	233	23.30	11.80	20.14	0.00	847.14	303.07	49380
2015	234	24.40	10.20	20.49	0.00	869.29	432.23	49187
2015	235	24.10	12.40	20.88	0.04	672.86	285.12	48993
2015	236	27.50	12.10	23.27	0.00	1290.71	403.57	48798
2015	237	23.20	16.30	21.30	0.26	722.14	128.11	48603
2015	238	26.90	10.20	22.31	0.00	1509.29	468.65	48406
2015	239	29.30	12.50	24.68	0.00	971.43	461.14	48208
2015	240	32.70	16.20	28.16	0.00	1818.57	494.12	48010
2015	241	33.60	14.30	28.29	0.00	2062.86	450.44	47811
2015	242	34.70	14.00	29.01	0.00	2049.29	445.38	47611
2015	243	34.00	14.90	28.75	0.00	2142.14	453.51	47410
2015	244	34.00	15.30	28.86	0.00	2232.14	450.18	47209
2015	245	28.20	14.10	24.32	0.06	1050.00	303.51	47007
2015	246	25.20	15.70	22.59	0.31	930.00	303.78	46805
2015	247	23.40	15.10	21.12	1.41	813.85	192.23	46601
2015	248	19.30	13.90	17.82	0.84	134.62	86.84	46398
2015	249	18.60	11.50	16.65	0.36	570.00	340.90	46194
2015	250	20.00	6.10	16.18	0.02	978.46	400.60	45989
2015	251	20.30	12.60	18.18	0.00	977.69	367.39	45784
2015	252	20.20	5.20	16.07	0.00	866.92	386.79	45579
2015	253	20.00	10.60	17.41	0.05	716.15	337.79	45373
2015	254	20.70	12.20	18.36	0.46	321.54	188.64	45167
2015	255	24.10	7.20	19.45	0.00	708.46	453.64	44961
2015	256	24.30	8.40	19.93	0.00	852.31	314.93	44755
2015	257	27.70	14.50	24.07	0.00	1368.33	329.73	44548
2015	258	26.10	13.60	22.66	0.00	818.33	212.53	44341
2015	259	28.00	18.60	25.41	0.00	1208.33	277.65	44134
2015	260	32.10	21.10	29.08	0.00	1818.33	387.98	43927
2015	261	27.40	15.40	24.10	0.01	1550.83	338.43	43719
2015	262	23.20	16.50	21.36	0.10	1048.33	165.40	43512
2015	263	21.80	15.00	19.93	0.00	1110.00	322.53	43304
2015	264	20.40	7.80	16.93	0.00	1118.33	423.21	43097
2015	265	22.10	3.90	17.09	0.00	958.33	396.89	42890
2015	266	23.10	6.50	18.54	0.34	950.00	315.03	42682
2015	267	17.70	13.20	16.46	0.64	690.83	185.83	42475
2015	268	17.00	12.30	15.71	3.42	227.50	39.89	42268
2015	269	16.80	13.00	15.76	0.04	487.50	169.57	42060
2015	270	17.10	12.00	15.70	0.00	653.33	244.35	41854
2015	271	17.00	9.70	14.99	0.00	652.50	283.79	41647
2015	272	17.30	9.00	15.02	0.00	702.50	314.15	41440
2015	273	14.80	9.60	13.37	0.00	580.00	199.52	41234
2015	274	17.50	5.80	14.28	0.00	627.50	327.36	41028
2015	275	18.90	2.40	14.36	0.00	718.33	352.29	40822
2015	276	21.80	6.20	17.51	0.00	593.64	295.89	40617
2015	277	22.80	6.90	18.43	0.02	850.00	294.10	40412
2015	278	21.70	11.90	19.00	0.00	569.09	290.00	40208
2015	279	20.30	8.00	16.92	0.00	432.73	238.78	40003
2015	280	17.00	13.50	16.04	0.51	97.27	60.31	39800
2015	281	16.60	12.30	15.42	0.15	215.45	110.00	39597
2015	282	16.50	12.40	15.37	0.07	142.73	87.61	39394
2015	283	14.60	9.50	13.20	1.37	175.45	65.52	39192
2015	284	10.10	5.30	8.78	1.98	76.36	55.84	38991
2015	285	8.50	2.90	6.96	0.00	341.82	211.38	38790
2015	286	8.00	4.60	7.06	0.99	111.82	61.27	38590
2015	287	9.50	7.80	9.03	2.66	37.27	45.13	38391
2015	288	11.80	8.10	10.78	2.43	213.60	26.14	38193
2015	289	13.90	10.80	13.05	0.37	90.00	151.87	37995
2015	290	11.60	5.50	9.92	0.02	207.27	165.79	37799
2015	291	12.40	5.70	10.56	2.91	105.45	128.58	37603
2015	292	9.40	7.10	8.77	0.00	77.27	33.42	37408
2015	293	12.00	5.40	10.18	0.00	363.64	199.55	37214
2015	294	12.20	2.00	9.39	0.00	307.27	128.38	37022
2015	295	12.70	4.20	10.36	0.00	398.18	239.09	36830
2015	296	14.50	1.60	10.95	0.00	353.64	176.45	36640
2015	297	15.30	2.50	11.78	0.00	370.91	343.50	36451
2015	298	14.50	1.60	10.95	0.00	292.73	271.87	36263
2015	299	13.80	4.40	11.22	0.00	322.73	247.61	36076
2015	300	14.30	6.90	12.27	0.00	336.36	295.64	35891
2015	301	9.20	4.00	7.77	0.03	95.00	45.87	35707
2015	302	11.10	7.20	10.03	0.06	76.00	79.41	35525
2015	303	16.30	6.30	13.55	0.00	522.00	309.39	35345
2015	304	14.80	0.00	10.73	0.00	409.00	296.27	35166
2015	305	12.20	0.90	9.09	0.00	533.00	320.67	34988
2015	306	12.00	-2.40	8.04	0.00	453.00	286.85	34813
2015	307	13.10	-1.80	9.00	0.00	430.00	296.76	34639
2015	308	10.60	-0.20	7.63	0.00	130.25	232.18	34468
2015	309	13.80	-2.00	9.46	0.00	313.00	243.09	34298
2015	310	15.00	-0.50	10.74	0.00	336.67	265.97	34130
2015	311	15.90	3.30	12.44	0.00	461.11	151.71	33964
2015	312	21.00	6.50	17.01	0.00	744.44	242.98	33801
2015	313	14.40	3.60	11.43	0.00	363.33	158.33	33640
2015	314	21.80	10.90	18.80	0.00	1054.44	161.60	33481
2015	315	21.90	6.60	17.69	0.00	886.67	226.28	33325
2015	316	18.10	3.20	14.00	0.00	516.67	243.33	33171
2015	317	15.60	4.00	12.41	0.00	393.33	234.47	33019
2015	318	14.70	3.80	11.70	0.00	472.22	176.65	32871
2015	319	12.20	3.80	9.89	0.00	398.89	102.75	32725
2015	320	19.60	6.00	15.86	0.00	882.22	226.73	32582
2015	321	11.60	1.40	8.79	0.00	288.89	136.88	32441
2015	322	18.10	7.40	15.16	0.00	703.33	239.88	32304
2015	323	16.30	0.30	11.90	0.00	336.67	236.04	32170
2015	324	12.00	6.70	10.54	0.48	410.00	95.77	32039
2015	325	11.00	4.40	9.19	0.03	227.78	33.09	31911
2015	326	7.20	2.70	5.96	0.00	271.11	88.57	31786
2015	327	5.70	-2.80	3.36	0.00	171.11	221.62	31665
2015	328	4.80	-1.80	2.98	0.00	210.00	155.64	31547
2015	329	2.20	-2.60	0.88	0.03	138.89	57.98	31433
2015	330	3.80	-0.20	2.70	0.00	131.11	92.65	31322
2015	331	4.10	2.80	3.74	0.00	216.67	73.68	31215
2015	332	5.40	-1.70	3.45	0.00	186.67	160.38	31112
2015	333	9.90	-2.80	6.41	0.00	398.89	192.10	31012
2015	334	12.70	0.20	9.26	0.00	537.78	140.22	30917
2015	335	15.70	4.70	12.67	0.06	747.78	149.59	30825
2015	336	11.10	4.80	9.37	0.00	220.00	167.15	30738
2015	337	9.00	0.70	6.72	0.00	45.56	58.55	30654
2015	338	7.60	3.10	6.36	0.00	120.00	34.65	30575
2015	339	9.70	0.20	7.09	0.01	74.44	198.10	30500
2015	340	3.30	2.10	2.97	0.00	45.40	31.62	30430
2015	341	2.70	0.10	1.99	0.00	89.54	71.44	30363
2015	342	2.20	0.30	1.68	0.08	65.19	30.78	30301
2015	343	3.00	1.40	2.56	0.02	1.11	36.84	30244
2015	344	8.70	0.30	6.39	0.00	411.11	177.10	30191
2015	345	6.10	-3.30	3.51	0.00	203.33	212.82	30143
2015	346	2.10	-2.30	0.89	0.00	5.56	65.28	30099
2015	347	3.20	-3.70	1.30	0.00	14.44	115.84	30060
2015	348	6.30	-2.80	3.80	0.02	155.00	123.68	30025
2015	349	4.10	0.90	3.22	0.02	8.75	47.46	29995
2015	350	6.10	1.00	4.70	0.00	77.50	109.61	29970
2015	351	3.40	1.80	2.96	0.01	59.96	36.08	29950
2015	352	2.30	0.30	1.75	0.00	68.79	57.72	29934
2015	353	8.80	0.60	6.54	0.00	51.25	147.56	29924
2015	354	3.90	-0.10	2.80	0.01	140.58	35.27	29918
2015	355	2.90	1.20	2.43	0.00	61.48	41.31	29916
2015	356	9.60	-0.50	6.82	0.00	168.75	204.21	29920
2015	357	3.70	-1.20	2.35	0.00	52.50	167.86	29928
2015	358	9.50	-1.10	6.59	0.00	246.25	155.33	29941
2015	359	8.80	1.40	6.77	0.00	108.75	183.58	29959
2015	360	8.30	-2.80	5.25	0.00	297.50	218.81	29982
2015	361	1.60	-2.30	0.53	0.00	7.50	99.17	30009
2015	362	8.50	-4.00	5.06	0.00	172.50	215.71	30042
2015	363	3.30	-1.40	2.01	0.00	38.75	42.53	30078
2015	364	3.40	-2.40	1.80	0.00	212.50	133.39	30120
2015	365	-1.40	-8.40	-3.33	0.00	85.00	103.83	30166